Timestamp,OriginalTimestamp,EEG.Counter,EEG.Interpolated,EEG.AF3,EEG.F7,EEG.F3,EEG.FC5,EEG.T7,EEG.P7,EEG.O1,EEG.O2,EEG.P8,EEG.T8,EEG.FC6,EEG.F4,EEG.F8,EEG.AF4,EEG.RawCq,EEG.Battery,EEG.BatteryPercent,MarkerIndex,MarkerType,MarkerValueInt,EEG.MarkerHardware,CQ.AF3,CQ.F7,CQ.F3,CQ.FC5,CQ.T7,CQ.P7,CQ.O1,CQ.O2,CQ.P8,CQ.T8,CQ.FC6,CQ.F4,CQ.F8,CQ.AF4,CQ.Overall,EQ.SampleRateQuality,EQ.OVERALL,EQ.AF3,EQ.F7,EQ.F3,EQ.FC5,EQ.T7,EQ.P7,EQ.O1,EQ.O2,EQ.P8,EQ.T8,EQ.FC6,EQ.F4,EQ.F8,EQ.AF4,MOT.CounterMems,MOT.InterpolatedMems,MOT.Q0,MOT.Q1,MOT.Q2,MOT.Q3,MOT.AccX,MOT.AccY,MOT.AccZ,MOT.MagX,MOT.MagY,MOT.MagZ,MC.Action,MC.ActionPower,MC.IsActive,PM.Attention.IsActive,PM.Attention.Scaled,PM.Attention.Raw,PM.Attention.Min,PM.Attention.Max,PM.Engagement.IsActive,PM.Engagement.Scaled,PM.Engagement.Raw,PM.Engagement.Min,PM.Engagement.Max,PM.Excitement.IsActive,PM.Excitement.Scaled,PM.Excitement.Raw,PM.Excitement.Min,PM.Excitement.Max,PM.LongTermExcitement,PM.Stress.IsActive,PM.Stress.Scaled,PM.Stress.Raw,PM.Stress.Min,PM.Stress.Max,PM.Relaxation.IsActive,PM.Relaxation.Scaled,PM.Relaxation.Raw,PM.Relaxation.Min,PM.Relaxation.Max,PM.Interest.IsActive,PM.Interest.Scaled,PM.Interest.Raw,PM.Interest.Min,PM.Interest.Max,PM.Focus.IsActive,PM.Focus.Scaled,PM.Focus.Raw,PM.Focus.Min,PM.Focus.Max,FE.BlinkWink,FE.HorizontalEyesDirection,FE.UpperFaceAction,FE.UpperFaceActionPower,FE.LowerFaceAction,FE.LowerFaceActionPower,POW.AF3.Theta,POW.AF3.Alpha,POW.AF3.BetaL,POW.AF3.BetaH,POW.AF3.Gamma,POW.F7.Theta,POW.F7.Alpha,POW.F7.BetaL,POW.F7.BetaH,POW.F7.Gamma,POW.F3.Theta,POW.F3.Alpha,POW.F3.BetaL,POW.F3.BetaH,POW.F3.Gamma,POW.FC5.Theta,POW.FC5.Alpha,POW.FC5.BetaL,POW.FC5.BetaH,POW.FC5.Gamma,POW.T7.Theta,POW.T7.Alpha,POW.T7.BetaL,POW.T7.BetaH,POW.T7.Gamma,POW.P7.Theta,POW.P7.Alpha,POW.P7.BetaL,POW.P7.BetaH,POW.P7.Gamma,POW.O1.Theta,POW.O1.Alpha,POW.O1.BetaL,POW.O1.BetaH,POW.O1.Gamma,POW.O2.Theta,POW.O2.Alpha,POW.O2.BetaL,POW.O2.BetaH,POW.O2.Gamma,POW.P8.Theta,POW.P8.Alpha,POW.P8.BetaL,POW.P8.BetaH,POW.P8.Gamma,POW.T8.Theta,POW.T8.Alpha,POW.T8.BetaL,POW.T8.BetaH,POW.T8.Gamma,POW.FC6.Theta,POW.FC6.Alpha,POW.FC6.BetaL,POW.FC6.BetaH,POW.FC6.Gamma,POW.F4.Theta,POW.F4.Alpha,POW.F4.BetaL,POW.F4.BetaH,POW.F4.Gamma,POW.F8.Theta,POW.F8.Alpha,POW.F8.BetaL,POW.F8.BetaH,POW.F8.Gamma,POW.AF4.Theta,POW.AF4.Alpha,POW.AF4.BetaL,POW.AF4.BetaH,POW.AF4.Gamma
1732009121,1732009121,45,0,4382.436035,4422.820313,4372.692383,4395.897461,4414.871582,4360.641113,4340.769043,4347.692383,4322.436035,4282.692383,4456.282227,4447.307617,4366.153809,4450.384766,0,4,100,,,,0,4,4,4,4,4,4,4,4,4,4,4,4,4,4,100,,,,,,,,,,,,,,,,,,,,,,,,,,,,,,,,,,,,,,,,,,,,,,,,,,,,,,,,,,,,,,,,,,,,0,0,1,0,2048,0.508618,,,,,,,,,,,,,,,,,,,,,,,,,,,,,,,,,,,,,,,,,,,,,,,,,,,,,,,,,,,,,,,,,,,,,,
1732009121,1732009121,46,0,4376.153809,4411.794922,4372.307617,4389.358887,4412.692383,4357.179688,4332.820313,4347.563965,4326.282227,4278.461426,4455,4445.897461,4363.077148,4442.94873,0,4,100,,,,0,4,4,4,4,4,4,4,4,4,4,4,4,4,4,100,,,,,,,,,,,,,,,,,,,,,,,,,,,,,,,,,,,,,,,,,,,,,,,,,,,,,,,,,,,,,,,,,,,,,,,,,,,,,,,,,,,,,,,,,,,,,,,,,,,,,,,,,,,,,,,,,,,,,,,,,,,,,,,,,,,,,,,,,,,,,,,
1732009121,1732009121,47,0,4375.641113,4409.102539,4371.794922,4388.974121,4414.743652,4355.512695,4334.102539,4343.077148,4331.922852,4283.077148,4453.974121,4446.538574,4364.615234,4442.820313,0,4,100,,,,0,4,4,4,4,4,4,4,4,4,4,4,4,4,4,100,,,,,,,,,,,,,,,,,,,,,,,,,,,,,,,,,,,,,,,,,,,,,,,,,,,,,,,,,,,,,,,,,,,,,,,,,,,,,,,,,,,,,,,,,,,,,,,,,,,,,,,,,,,,,,,,,,,,,,,,,,,,,,,,,,,,,,,,,,,,,,,
1732009121,1732009121,48,0,4381.666504,4414.743652,4374.487305,4395.641113,4417.436035,4360.897461,4339.358887,4345.256348,4328.846191,4289.102539,4457.820313,4450.128418,4367.820313,4453.077148,0,4,100,,,,0,4,4,4,4,4,4,4,4,4,4,4,4,4,4,100,,,,,,,,,,,,,,,,,,,,,,,,,,,,,,,,,,,,,,,,,,,,,,,,,,,,,,,,,,,,,,,,,,,,,,,,,,,,,,,,,,,,,,,,,,,,,,,,,,,,,,,,,,,,,,,,,,,,,,,,,,,,,,,,,,,,,,,,,,,,,,,
1732009121,1732009121,49,0,4380.769043,4412.05127,4376.025879,4393.333496,4416.666504,4358.205078,4335.384766,4349.615234,4321.666504,4283.717773,4461.666504,4452.692383,4369.487305,4455,0,4,100,,,,0,4,4,4,4,4,4,4,4,4,4,4,4,4,4,100,,,,,,,,,,,,,,,,,,,,,,,,,,,,,,,,,,,,,,,,,,,,,,,,,,,,,,,,,,,,,,,,,,,,0,0,1,0,2048,0.508618,,,,,,,,,,,,,,,,,,,,,,,,,,,,,,,,,,,,,,,,,,,,,,,,,,,,,,,,,,,,,,,,,,,,,,
1732009121,1732009121,50,0,4379.615234,4407.179688,4376.666504,4389.743652,4416.922852,4350.641113,4331.794922,4347.436035,4322.307617,4280.512695,4460.256348,4452.94873,4374.230957,4450.512695,0,4,100,,,,0,4,4,4,4,4,4,4,4,4,4,4,4,4,4,100,,,,,,,,,,,,,,,,,,,,,,,,,,,,,,,,,,,,,,,,,,,,,,,,,,,,,,,,,,,,,,,,,,,,,,,,,,,,,,,,,,,,,,,,,,,,,,,,,,,,,,,,,,,,,,,,,,,,,,,,,,,,,,,,,,,,,,,,,,,,,,,
1732009121,1732009121,51,0,4380.256348,4407.94873,4373.461426,4391.153809,4411.794922,4353.333496,4333.846191,4343.717773,4322.307617,4281.538574,4454.615234,4450.769043,4379.871582,4449.102539,0,4,100,,,,0,4,4,4,4,4,4,4,4,4,4,4,4,4,4,100,,,,,,,,,,,,,,,,,,,,,,,,,,,,,,,,,,,,,,,,,,,,,,,,,,,,,,,,,,,,,,,,,,,,,,,,,,,,,,,,,,,,,,,,,,,,,,,,,,,,,,,,,,,,,,,,,,,,,,,,,,,,,,,,,,,,,,,,,,,,,,,
1732009121,1732009121,52,0,4377.563965,4407.179688,4368.205078,4387.05127,4406.666504,4357.179688,4335.128418,4343.205078,4315,4279.615234,4452.05127,4445.512695,4381.025879,4446.153809,0,4,100,,,,0,4,4,4,4,4,4,4,4,4,4,4,4,4,4,100,,,,,,,,,,,,,,,,,,,,,,,,,,,,,,,,,,,,,,,,,,,,,,,,,,,,,,,,,,,,,,,,,,,,,,,,,,,,,,,,,,,,,,,,,,,,,,,,,,,,,,,,,,,,,,,,,,,,,,,,,,,,,,,,,,,,,,,,,,,,,,,
1732009121,1732009121,53,0,4377.179688,4401.666504,4367.94873,4383.974121,4407.563965,4353.461426,4333.461426,4345.384766,4313.077148,4283.717773,4454.487305,4447.179688,4378.846191,4448.205078,0,4,100,,,,0,4,4,4,4,4,4,4,4,4,4,4,4,4,4,100,,,,,,,,,,,,,,,,,,,,,,,,,,,,,1,0,0,,,,,,,,,,,,,,,,,,,,,,,,,,,,,,,,,,,,,0,0,1,0,1,0,0.466963,0.658676,0.655422,0.251091,0.095044,1.491249,0.577969,0.718967,0.341899,0.161259,0.896302,0.904092,0.924648,0.215935,0.088175,0.460198,0.739123,0.459548,0.192043,0.113068,0.462426,0.485402,0.37322,0.446163,0.297764,0.656966,0.318389,0.143423,0.128208,0.173947,0.792812,0.109444,0.147571,0.101895,0.07741,0.83664,0.205695,0.134425,0.116118,0.075523,0.677091,0.322807,0.129544,0.191383,0.125526,0.951393,1.661527,0.71097,0.439166,0.205366,0.873729,1.583194,0.913677,0.524914,0.191539,1.070229,1.204568,0.991188,0.345726,0.132259,1.824976,1.647022,1.141691,0.704277,0.232167,0.792259,1.440552,0.935253,0.378344,0.080374
1732009121,1732009121,54,0,4376.922852,4400.512695,4371.538574,4387.05127,4408.717773,4353.589844,4331.282227,4348.333496,4321.025879,4286.025879,4458.717773,4453.461426,4372.692383,4453.333496,0,4,100,,,,0,4,4,4,4,4,4,4,4,4,4,4,4,4,4,100,,,,,,,,,,,,,,,,,,,,,,,,,,,,,,,,,,,,,,,,,,,,,,,,,,,,,,,,,,,,,,,,,,,,,,,,,,,,,,,,,,,,,,,,,,,,,,,,,,,,,,,,,,,,,,,,,,,,,,,,,,,,,,,,,,,,,,,,,,,,,,,
1732009121,1732009121,55,0,4371.025879,4401.025879,4371.282227,4385,4408.974121,4357.820313,4333.077148,4352.692383,4327.94873,4281.666504,4457.05127,4450.897461,4363.205078,4447.820313,0,4,100,,,,0,4,4,4,4,4,4,4,4,4,4,4,4,4,4,100,,,,,,,,,,,,,,,,,,,,,,,,,,,,,,,,,,,,,,,,,,,,,,,,,,,,,,,,,,,,,,,,,,,,,,,,,,,,,,,,,,,,,,,,,,,,,,,,,,,,,,,,,,,,,,,,,,,,,,,,,,,,,,,,,,,,,,,,,,,,,,,
1732009121,1732009121,56,0,4368.461426,4393.077148,4366.666504,4380.384766,4411.025879,4358.077148,4334.230957,4350.256348,4326.025879,4287.692383,4452.94873,4444.230957,4361.922852,4443.205078,0,4,100,,,,0,4,4,4,4,4,4,4,4,4,4,4,4,4,4,100,,,,,,,,,,,,,,,,,,,,,,,,,,,,,,,,,,,,,,,,,,,,,,,,,,,,,,,,,,,,,,,,,,,,,,,,,,,,,,,,,,,,,,,,,,,,,,,,,,,,,,,,,,,,,,,,,,,,,,,,,,,,,,,,,,,,,,,,,,,,,,,
1732009121,1732009121,57,0,4368.717773,4385.769043,4365.897461,4380.897461,4412.436035,4355.641113,4332.436035,4345.512695,4321.538574,4299.871582,4453.717773,4444.358887,4365.128418,4444.358887,0,4,100,,,,0,4,4,4,4,4,4,4,4,4,4,4,4,4,4,100,,,,,,,,,,,,,,,,,,,,,,,,,,,,,,,,,,,,,,,,,,,,,,,,,,,,,,,,,,,,,,,,,,,,0,0,1,0,1,0,,,,,,,,,,,,,,,,,,,,,,,,,,,,,,,,,,,,,,,,,,,,,,,,,,,,,,,,,,,,,,,,,,,,,,
1732009121,1732009121,58,0,4365.769043,4385.256348,4369.358887,4380.512695,4410.641113,4358.974121,4332.820313,4349.358887,4319.743652,4293.717773,4453.846191,4445.512695,4363.333496,4443.846191,0,4,100,,,,0,4,4,4,4,4,4,4,4,4,4,4,4,4,4,100,,,,,,,,,,,,,,,,,,,,,,,,,,,,,,,,,,,,,,,,,,,,,,,,,,,,,,,,,,,,,,,,,,,,,,,,,,,,,,,,,,,,,,,,,,,,,,,,,,,,,,,,,,,,,,,,,,,,,,,,,,,,,,,,,,,,,,,,,,,,,,,
1732009121,1732009121,59,0,4363.333496,4381.794922,4369.230957,4378.846191,4411.922852,4363.461426,4337.05127,4348.846191,4317.692383,4281.025879,4448.333496,4441.282227,4362.563965,4441.282227,0,4,100,,,,0,4,4,4,4,4,4,4,4,4,4,4,4,4,4,100,,,,,,,,,,,,,,,,,,,,,,,,,,,,,,,,,,,,,,,,,,,,,,,,,,,,,,,,,,,,,,,,,,,,,,,,,,,,,,,,,,,,,,,,,,,,,,,,,,,,,,,,,,,,,,,,,,,,,,,,,,,,,,,,,,,,,,,,,,,,,,,
1732009121,1732009121,60,0,4363.461426,4378.717773,4367.436035,4380.769043,4413.461426,4362.563965,4339.615234,4340.512695,4315,4283.717773,4447.820313,4440.128418,4358.333496,4440.128418,0,4,100,,,,0,4,4,4,4,4,4,4,4,4,4,4,4,4,4,100,,,,,,,,,,,,,,,,,,,,,,,,,,,,,,,,,,,,,,,,,,,,,,,,,,,,,,,,,,,,,,,,,,,,,,,,,,,,,,,,,,,,,,,,,,,,,,,,,,,,,,,,,,,,,,,,,,,,,,,,,,,,,,,,,,,,,,,,,,,,,,,
1732009121,1732009121,61,0,4366.153809,4384.871582,4370.128418,4383.461426,4410.641113,4361.922852,4339.743652,4341.282227,4313.717773,4291.282227,4456.025879,4446.666504,4350,4445.256348,0,4,100,,,,0,4,4,4,4,4,4,4,4,4,4,4,4,4,4,100,,,,,,,,,,,,,,,,,,,,,,,,,,,,,,,,,,,,,,,,,,,,,,,,,,,,,,,,,,,,,,,,,,,,0,0,1,0,1,0,,,,,,,,,,,,,,,,,,,,,,,,,,,,,,,,,,,,,,,,,,,,,,,,,,,,,,,,,,,,,,,,,,,,,,
1732009121,1732009121,62,0,4372.692383,4391.666504,4375.897461,4384.871582,4413.717773,4365.128418,4339.615234,4349.743652,4317.307617,4294.230957,4464.230957,4455.384766,4353.333496,4452.94873,0,4,100,,,,0,4,4,4,4,4,4,4,4,4,4,4,4,4,4,100,,,,,,,,,,,,,,,,,,,,,,,,,,,,,,,,,,,,,,,,,,,,,,,,,,,,,,,,,,,,,,,,,,,,,,,,,,,,,,,,,,,,,,,,,,,,,,,,,,,,,,,,,,,,,,,,,,,,,,,,,,,,,,,,,,,,,,,,,,,,,,,
1732009121,1732009121,63,0,4378.333496,4391.922852,4380,4386.282227,4419.358887,4366.282227,4336.922852,4350.769043,4322.179688,4295,4468.974121,4458.461426,4359.743652,4458.589844,0,4,100,,,,0,4,4,4,4,4,4,4,4,4,4,4,4,4,4,100,,,,,,,,,,,,,,,,,,,,,,,,,,,,,,,,,,,,,,,,,,,,,,,,,,,,,,,,,,,,,,,,,,,,,,,,,,,,,,,,,,,,,,,,,,,,,,,,,,,,,,,,,,,,,,,,,,,,,,,,,,,,,,,,,,,,,,,,,,,,,,,
1732009121,1732009121,64,0,4375.641113,4391.666504,4383.461426,4388.333496,4417.563965,4365.897461,4333.205078,4346.666504,4321.410156,4295.256348,4471.282227,4456.538574,4359.615234,4458.846191,2419,4,100,,,,0,4,4,4,4,4,4,4,4,4,4,4,4,4,4,100,,,,,,,,,,,,,,,,,,,,,,,,,,,,,,,,,,,,,,,,,,,,,,,,,,,,,,,,,,,,,,,,,,,,,,,,,,,,,,,,,,,,,,,,,,,,,,,,,,,,,,,,,,,,,,,,,,,,,,,,,,,,,,,,,,,,,,,,,,,,,,,
1732009121,1732009121,65,0,4376.410156,4397.820313,4383.077148,4390.641113,4411.538574,4363.077148,4330.256348,4345.512695,4316.538574,4297.179688,4471.153809,4455.256348,4369.358887,4458.077148,2287,4,100,,,,0,4,4,4,4,4,4,4,4,4,4,4,4,4,4,100,,,,,,,,,,,,,,,,,,,,,,,,,,,,,,,,,,,,,,,,,,,,,,,,,,,,,,,,,,,,,,,,,,,,0,0,1,0,1,0,,,,,,,,,,,,,,,,,,,,,,,,,,,,,,,,,,,,,,,,,,,,,,,,,,,,,,,,,,,,,,,,,,,,,,
1732009121,1732009121,66,0,4376.922852,4397.563965,4380.384766,4389.615234,4410.384766,4359.743652,4328.461426,4346.282227,4314.358887,4297.563965,4465.128418,4455.128418,4376.025879,4455.641113,2110,4,100,,,,0,4,4,4,4,4,4,4,4,4,4,4,4,4,4,100,,,,,,,,,,,,,,,,,,,,,,,,,,,,,,,,,,,,,,,,,,,,,,,,,,,,,,,,,,,,,,,,,,,,,,,,,,,,,,,,,,,,,,,,,,,,,,,,,,,,,,,,,,,,,,,,,,,,,,,,,,,,,,,,,,,,,,,,,,,,,,,
1732009121,1732009121,67,0,4373.717773,4391.922852,4380,4389.358887,4414.743652,4362.692383,4329.230957,4347.94873,4315.769043,4293.461426,4462.307617,4455.128418,4369.358887,4455.512695,2279,4,100,,,,0,4,4,4,4,4,4,4,4,4,4,4,4,4,4,100,,,,,,,,,,,,,,,,,,,,,,,,,,,,,,,,,,,,,,,,,,,,,,,,,,,,,,,,,,,,,,,,,,,,,,,,,,,,,,,,,,,,,,,,,,,,,,,,,,,,,,,,,,,,,,,,,,,,,,,,,,,,,,,,,,,,,,,,,,,,,,,
1732009121,1732009121,68,0,4387.179688,4402.820313,4385.256348,4396.666504,4418.717773,4367.179688,4331.922852,4346.538574,4317.692383,4293.461426,4475.641113,4462.436035,4385.256348,4469.615234,2441,4,100,,,,0,4,4,4,4,4,4,4,4,4,4,4,4,4,4,100,,,,,,,,,,,,,,,,,,,,,,,,,,,,,,,,,,,,,,,,,,,,,,,,,,,,,,,,,,,,,,,,,,,,,,,,,,,,,,,,,,,,,,,,,,,,,,,,,,,,,,,,,,,,,,,,,,,,,,,,,,,,,,,,,,,,,,,,,,,,,,,
1732009121,1732009121,69,0,4410.256348,4414.358887,4394.615234,4403.846191,4413.846191,4364.743652,4334.615234,4347.05127,4320.641113,4305.641113,4492.179688,4474.615234,4417.563965,4488.846191,2376,4,100,,,,0,4,4,4,4,4,4,4,4,4,4,4,4,4,4,100,,,,,,,,,,,,,,,,,,,,,,,,,,,,,1,0,0,,,,,,,,,,,,,,,,,,,,,,,,,,,,,,,,,,,,,0,0,64,0.269323,1,0,0.476119,0.605165,0.514811,0.239258,0.095356,1.40841,0.562612,0.58393,0.311914,0.161137,0.757452,0.833304,0.748148,0.184431,0.085825,0.493365,0.752581,0.38794,0.18189,0.110409,0.526933,0.526826,0.324102,0.469628,0.294438,0.676314,0.352603,0.123007,0.134125,0.184601,0.860606,0.141937,0.147508,0.105799,0.077086,1.200409,0.263187,0.153245,0.120327,0.08863,0.997823,0.274576,0.147293,0.171699,0.118785,1.12478,1.566815,0.62689,0.396456,0.213905,1.078124,1.599919,0.740862,0.50496,0.210396,1.112018,1.122466,0.862597,0.303966,0.13613,2.26517,1.506703,1.150164,0.657241,0.256103,0.792963,1.375267,0.774521,0.343227,0.088951
1732009121,1732009121,70,0,4424.615234,4411.538574,4400.256348,4402.692383,4410.512695,4363.974121,4339.615234,4354.102539,4325.128418,4316.410156,4504.102539,4484.230957,4431.153809,4504.230957,1815,4,100,,,,0,4,4,4,4,4,4,4,4,4,4,4,4,4,4,100,,,,,,,,,,,,,,,,,,,,,,,,,,,,,,,,,,,,,,,,,,,,,,,,,,,,,,,,,,,,,,,,,,,,,,,,,,,,,,,,,,,,,,,,,,,,,,,,,,,,,,,,,,,,,,,,,,,,,,,,,,,,,,,,,,,,,,,,,,,,,,,
1732009121,1732009121,71,0,4435.641113,4419.871582,4402.436035,4404.358887,4423.077148,4369.102539,4344.743652,4357.436035,4329.871582,4316.025879,4512.692383,4492.05127,4438.461426,4519.358887,1987,4,100,,,,0,4,4,4,4,4,4,4,4,4,4,4,4,4,4,100,,,,,,,,,,,,,,,,,,,,,,,,,,,,,,,,,,,,,,,,,,,,,,,,,,,,,,,,,,,,,,,,,,,,,,,,,,,,,,,,,,,,,,,,,,,,,,,,,,,,,,,,,,,,,,,,,,,,,,,,,,,,,,,,,,,,,,,,,,,,,,,
1732009121,1732009121,72,0,4453.333496,4439.487305,4407.94873,4415.512695,4428.333496,4370.256348,4344.615234,4357.436035,4329.358887,4312.563965,4516.922852,4499.230957,4447.563965,4533.461426,2025,4,100,,,,0,4,4,4,4,4,4,4,4,4,4,4,4,4,4,100,,,,,,,,,,,,,,,,,,,,,,,,,,,,,,,,,,,,,,,,,,,,,,,,,,,,,,,,,,,,,,,,,,,,,,,,,,,,,,,,,,,,,,,,,,,,,,,,,,,,,,,,,,,,,,,,,,,,,,,,,,,,,,,,,,,,,,,,,,,,,,,
1732009121,1732009121,73,0,4466.922852,4446.794922,4413.974121,4422.94873,4416.922852,4367.05127,4343.589844,4360.897461,4327.05127,4312.179688,4517.436035,4505.256348,4446.410156,4541.922852,2463,4,100,,,,0,4,4,4,4,4,4,4,4,4,4,4,4,4,4,100,,,,,,,,,,,,,,,,,,,,,,,,,,,,,,,,,,,,,,,,,,,,,,,,,,,,,,,,,,,,,,,,,,,,0,0,64,0.269323,1,0,,,,,,,,,,,,,,,,,,,,,,,,,,,,,,,,,,,,,,,,,,,,,,,,,,,,,,,,,,,,,,,,,,,,,,
1732009121,1732009121,74,0,4466.025879,4447.436035,4411.666504,4418.077148,4419.487305,4365.641113,4345.256348,4364.487305,4330.769043,4312.94873,4516.025879,4508.077148,4446.153809,4545.256348,2543,4,100,,,,0,4,4,4,4,4,4,4,4,4,4,4,4,4,4,100,,,,,,,,,,,,,,,,,,,,,,,,,,,,,,,,,,,,,,,,,,,,,,,,,,,,,,,,,,,,,,,,,,,,,,,,,,,,,,,,,,,,,,,,,,,,,,,,,,,,,,,,,,,,,,,,,,,,,,,,,,,,,,,,,,,,,,,,,,,,,,,
1732009121,1732009121,75,0,4459.358887,4442.307617,4406.025879,4408.461426,4426.794922,4366.153809,4345.769043,4365.897461,4333.205078,4310.512695,4513.846191,4503.589844,4449.230957,4543.333496,2538,4,100,,,,0,4,4,4,4,4,4,4,4,4,4,4,4,4,4,100,,,,,,,,,,,,,,,,,,,,,,,,,,,,,,,,,,,,,,,,,,,,,,,,,,,,,,,,,,,,,,,,,,,,,,,,,,,,,,,,,,,,,,,,,,,,,,,,,,,,,,,,,,,,,,,,,,,,,,,,,,,,,,,,,,,,,,,,,,,,,,,
1732009121,1732009121,76,0,4452.05127,4427.436035,4401.410156,4403.205078,4418.974121,4366.794922,4344.615234,4366.666504,4329.615234,4308.717773,4510.769043,4497.563965,4443.717773,4535.384766,2977,4,100,,,,0,4,4,4,4,4,4,4,4,4,4,4,4,4,4,100,,,,,,,,,,,,,,,,,,,,,,,,,,,,,,,,,,,,,,,,,,,,,,,,,,,,,,,,,,,,,,,,,,,,,,,,,,,,,,,,,,,,,,,,,,,,,,,,,,,,,,,,,,,,,,,,,,,,,,,,,,,,,,,,,,,,,,,,,,,,,,,
1732009121,1732009121,77,0,4449.615234,4420.897461,4399.102539,4402.692383,4412.692383,4365.769043,4344.743652,4365.641113,4330.256348,4313.974121,4514.615234,4500.512695,4444.871582,4533.846191,3119,4,100,,,,0,4,4,4,4,4,4,4,4,4,4,4,4,4,4,100,,,,,,,,,,,,,,,,,,,,,,,,,,,,,,,,,,,,,,,,,,,,,,,,,,,,,,,,,,,,,,,,,,,,0,0,64,0.269323,1,0,,,,,,,,,,,,,,,,,,,,,,,,,,,,,,,,,,,,,,,,,,,,,,,,,,,,,,,,,,,,,,,,,,,,,,
1732009121,1732009121,78,0,4447.563965,4423.077148,4402.94873,4403.333496,4414.102539,4363.846191,4347.179688,4366.282227,4334.487305,4318.717773,4520.512695,4503.717773,4455.897461,4537.563965,2543,4,100,,,,0,4,4,4,4,4,4,4,4,4,4,4,4,4,4,100,,,,,,,,,,,,,,,,,,,,,,,,,,,,,,,,,,,,,,,,,,,,,,,,,,,,,,,,,,,,,,,,,,,,,,,,,,,,,,,,,,,,,,,,,,,,,,,,,,,,,,,,,,,,,,,,,,,,,,,,,,,,,,,,,,,,,,,,,,,,,,,
1732009121,1732009121,79,0,4445,4422.94873,4407.563965,4404.487305,4414.871582,4361.538574,4347.94873,4367.820313,4334.487305,4317.307617,4518.333496,4501.410156,4452.94873,4536.282227,2538,4,100,,,,0,4,4,4,4,4,4,4,4,4,4,4,4,4,4,100,,,,,,,,,,,,,,,,,,,,,,,,,,,,,,,,,,,,,,,,,,,,,,,,,,,,,,,,,,,,,,,,,,,,,,,,,,,,,,,,,,,,,,,,,,,,,,,,,,,,,,,,,,,,,,,,,,,,,,,,,,,,,,,,,,,,,,,,,,,,,,,
1732009121,1732009121,80,0,4441.410156,4421.153809,4405.256348,4404.358887,4416.410156,4360.256348,4346.025879,4364.358887,4331.666504,4319.487305,4512.563965,4502.563965,4442.692383,4532.307617,2977,4,100,,,,0,4,4,4,4,4,4,4,4,4,4,4,4,4,4,100,,,,,,,,,,,,,,,,,,,,,,,,,,,,,,,,,,,,,,,,,,,,,,,,,,,,,,,,,,,,,,,,,,,,,,,,,,,,,,,,,,,,,,,,,,,,,,,,,,,,,,,,,,,,,,,,,,,,,,,,,,,,,,,,,,,,,,,,,,,,,,,
1732009121,1732009121,81,0,4428.077148,4410.384766,4398.461426,4400,4415.641113,4358.205078,4348.205078,4359.230957,4329.358887,4325.128418,4510.897461,4498.077148,4441.410156,4523.333496,3119,4,100,,,,0,4,4,4,4,4,4,4,4,4,4,4,4,4,4,100,,,,,,,,,,,,,,,,,,,,,,,,,,,,,,,,,,,,,,,,,,,,,,,,,,,,,,,,,,,,,,,,,,,,0,0,64,0.269323,1,0,,,,,,,,,,,,,,,,,,,,,,,,,,,,,,,,,,,,,,,,,,,,,,,,,,,,,,,,,,,,,,,,,,,,,,
1732009121,1732009121,82,0,4417.563965,4397.436035,4396.025879,4396.794922,4415,4357.820313,4351.922852,4361.153809,4330.512695,4325.769043,4513.077148,4491.794922,4436.282227,4515.384766,2543,4,100,,,,0,4,4,4,4,4,4,4,4,4,4,4,4,4,4,100,,,,,,,,,,,,,,,,,,,,,,,,,,,,,,,,,,,,,,,,,,,,,,,,,,,,,,,,,,,,,,,,,,,,,,,,,,,,,,,,,,,,,,,,,,,,,,,,,,,,,,,,,,,,,,,,,,,,,,,,,,,,,,,,,,,,,,,,,,,,,,,
1732009121,1732009121,83,0,4417.692383,4395.128418,4397.94873,4397.820313,4423.974121,4361.282227,4350.256348,4371.153809,4339.230957,4326.153809,4515.769043,4500.641113,4423.974121,4517.436035,2538,4,100,,,,0,4,4,4,4,4,4,4,4,4,4,4,4,4,4,100,,,,,,,,,,,,,,,,,,,,,,,,,,,,,,,,,,,,,,,,,,,,,,,,,,,,,,,,,,,,,,,,,,,,,,,,,,,,,,,,,,,,,,,,,,,,,,,,,,,,,,,,,,,,,,,,,,,,,,,,,,,,,,,,,,,,,,,,,,,,,,,
1732009121,1732009121,84,0,4416.410156,4396.153809,4396.538574,4395.641113,4430,4358.461426,4352.563965,4375.256348,4349.615234,4327.179688,4517.94873,4505,4418.077148,4514.230957,2977,4,100,,,,0,4,4,4,4,4,4,4,4,4,4,4,4,4,4,100,,,,,,,,,,,,,,,,,,,,,,,,,,,,,,,,,,,,,,,,,,,,,,,,,,,,,,,,,,,,,,,,,,,,,,,,,,,,,,,,,,,,,,,,,,,,,,,,,,,,,,,,,,,,,,,,,,,,,,,,,,,,,,,,,,,,,,,,,,,,,,,
1732009121,1732009121,85,0,4404.743652,4390.512695,4390,4390.641113,4422.692383,4348.846191,4359.102539,4369.871582,4348.974121,4326.922852,4512.692383,4493.974121,4416.794922,4501.922852,3119,4,100,,,,0,4,4,4,4,4,4,4,4,4,4,4,4,4,4,100,1,100,4,4,4,4,4,4,4,4,4,4,4,4,4,4,,,,,,,,,,,,,1,0,0,,,,,,,,,,,,,,,,,,,,,,,,,,,,,,,,,,,,,0,0,64,0.343971,1,0,0.616697,0.616142,0.424339,0.229999,0.097458,1.453485,0.556964,0.46755,0.277804,0.157548,0.678313,0.785523,0.567535,0.155526,0.08676,0.604954,0.750256,0.344006,0.166388,0.1101,0.597043,0.57166,0.330314,0.482709,0.288555,0.675145,0.379525,0.10159,0.142091,0.197395,0.894643,0.174395,0.156468,0.112068,0.079634,1.543356,0.348962,0.187341,0.126999,0.105184,1.334578,0.295381,0.202806,0.157709,0.121491,1.401886,1.572059,0.625199,0.376772,0.225417,1.415968,1.641443,0.609702,0.483412,0.218185,1.212059,1.025083,0.746707,0.266193,0.143671,2.933132,1.349599,1.206575,0.603084,0.262551,0.8823,1.286424,0.622659,0.30948,0.098377
1732009121,1732009121,86,0,4395.512695,4382.436035,4386.538574,4389.487305,4413.589844,4349.743652,4355.641113,4366.025879,4340.384766,4329.487305,4502.05127,4487.563965,4407.692383,4493.974121,2543,4,100,,,,0,4,4,4,4,4,4,4,4,4,4,4,4,4,4,100,,,,,,,,,,,,,,,,,,,,,,,,,,,,,,,,,,,,,,,,,,,,,,,,,,,,,,,,,,,,,,,,,,,,,,,,,,,,,,,,,,,,,,,,,,,,,,,,,,,,,,,,,,,,,,,,,,,,,,,,,,,,,,,,,,,,,,,,,,,,,,,
1732009121,1732009121,87,0,4394.102539,4375.769043,4383.717773,4385.128418,4412.563965,4356.538574,4346.410156,4365.897461,4336.794922,4324.615234,4495.641113,4483.461426,4397.563965,4489.230957,2538,4,100,,,,0,4,4,4,4,4,4,4,4,4,4,4,4,4,4,100,,,,,,,,,,,,,,,,,,,,,,,,,,,,,,,,,,,,,,,,,,,,,,,,,,,,,,,,,,,,,,,,,,,,,,,,,,,,,,,,,,,,,,,,,,,,,,,,,,,,,,,,,,,,,,,,,,,,,,,,,,,,,,,,,,,,,,,,,,,,,,,
1732009121,1732009121,88,0,4384.743652,4369.358887,4373.589844,4375.769043,4415.256348,4348.846191,4343.846191,4360.769043,4337.179688,4317.05127,4487.94873,4470.512695,4392.307617,4480.769043,2977,4,100,,,,0,4,4,4,4,4,4,4,4,4,4,4,4,4,4,100,,,,,,,,,,,,,,,,,,,,,,,,,,,,,,,,,,,,,,,,,,,,,,,,,,,,,,,,,,,,,,,,,,,,,,,,,,,,,,,,,,,,,,,,,,,,,,,,,,,,,,,,,,,,,,,,,,,,,,,,,,,,,,,,,,,,,,,,,,,,,,,
1732009121,1732009121,89,0,4373.077148,4367.05127,4367.05127,4373.205078,4415.384766,4343.077148,4348.077148,4354.230957,4335.384766,4326.025879,4482.94873,4461.794922,4392.563965,4471.794922,3119,4,100,,,,0,4,4,4,4,4,4,4,4,4,4,4,4,4,4,100,,,,,,,,,,,,,,,,,,,,,,,,,,,,,,,,,,,,,,,,,,,,,,,,,,,,,,,,,,,,,,,,,,,,0,0,64,0.343971,1,0,,,,,,,,,,,,,,,,,,,,,,,,,,,,,,,,,,,,,,,,,,,,,,,,,,,,,,,,,,,,,,,,,,,,,,
1732009121,1732009121,90,0,4370.897461,4366.922852,4367.179688,4375.897461,4418.333496,4355,4351.794922,4354.487305,4329.230957,4329.358887,4479.487305,4462.307617,4396.410156,4468.846191,2543,4,100,,,,0,4,4,4,4,4,4,4,4,4,4,4,4,4,4,100,,,,,,,,,,,,,,,,,,,,,,,,,,,,,,,,,,,,,,,,,,,,,,,,,,,,,,,,,,,,,,,,,,,,,,,,,,,,,,,,,,,,,,,,,,,,,,,,,,,,,,,,,,,,,,,,,,,,,,,,,,,,,,,,,,,,,,,,,,,,,,,
1732009121,1732009121,91,0,4371.538574,4363.717773,4365.897461,4374.487305,4419.358887,4358.974121,4350,4355.641113,4323.205078,4311.794922,4474.487305,4460.384766,4397.179688,4467.179688,2538,4,100,,,,0,4,4,4,4,4,4,4,4,4,4,4,4,4,4,100,,,,,,,,,,,,,,,,,,,,,,,,,,,,,,,,,,,,,,,,,,,,,,,,,,,,,,,,,,,,,,,,,,,,,,,,,,,,,,,,,,,,,,,,,,,,,,,,,,,,,,,,,,,,,,,,,,,,,,,,,,,,,,,,,,,,,,,,,,,,,,,
1732009121,1732009121,92,0,4367.94873,4360.897461,4365.256348,4372.692383,4413.974121,4352.820313,4348.205078,4355.641113,4323.205078,4308.333496,4478.717773,4459.871582,4396.666504,4463.974121,2977,4,100,,,,0,4,4,4,4,4,4,4,4,4,4,4,4,4,4,100,,,,,,,,,,,,,,,,,,,,,,,,,,,,,,,,,,,,,,,,,,,,,,,,,,,,,,,,,,,,,,,,,,,,,,,,,,,,,,,,,,,,,,,,,,,,,,,,,,,,,,,,,,,,,,,,,,,,,,,,,,,,,,,,,,,,,,,,,,,,,,,
1732009121,1732009121,93,0,4361.666504,4356.025879,4363.205078,4369.871582,4418.974121,4353.974121,4349.102539,4357.563965,4326.153809,4317.05127,4479.871582,4459.102539,4395.128418,4460.512695,3119,4,100,,,,0,4,4,4,4,4,4,4,4,4,4,4,4,4,4,100,,,,,,,,,,,,,,,,,,,,,,,,,,,,,,,,,,,,,,,,,,,,,,,,,,,,,,,,,,,,,,,,,,,,0,0,64,0.343971,1,0,,,,,,,,,,,,,,,,,,,,,,,,,,,,,,,,,,,,,,,,,,,,,,,,,,,,,,,,,,,,,,,,,,,,,,
1732009121,1732009121,94,0,4355.641113,4356.025879,4356.410156,4363.333496,4426.153809,4355.641113,4348.846191,4360.641113,4327.05127,4313.461426,4472.692383,4451.538574,4393.846191,4456.282227,2543,4,100,,,,0,4,4,4,4,4,4,4,4,4,4,4,4,4,4,100,,,,,,,,,,,,,,,,,,,,,,,,,,,,,,,,,,,,,,,,,,,,,,,,,,,,,,,,,,,,,,,,,,,,,,,,,,,,,,,,,,,,,,,,,,,,,,,,,,,,,,,,,,,,,,,,,,,,,,,,,,,,,,,,,,,,,,,,,,,,,,,
1732009121,1732009121,95,0,4350.897461,4358.589844,4352.820313,4359.358887,4419.102539,4349.871582,4346.922852,4358.589844,4325.256348,4312.307617,4471.922852,4445.512695,4394.615234,4452.05127,2538,4,100,,,,0,4,4,4,4,4,4,4,4,4,4,4,4,4,4,100,,,,,,,,,,,,,,,,,,,,,,,,,,,,,,,,,,,,,,,,,,,,,,,,,,,,,,,,,,,,,,,,,,,,,,,,,,,,,,,,,,,,,,,,,,,,,,,,,,,,,,,,,,,,,,,,,,,,,,,,,,,,,,,,,,,,,,,,,,,,,,,
1732009121,1732009121,96,0,4348.846191,4355.256348,4355,4358.717773,4408.205078,4348.461426,4345.128418,4352.692383,4321.025879,4318.846191,4474.358887,4446.025879,4394.230957,4450.769043,2977,4,100,,,,0,4,4,4,4,4,4,4,4,4,4,4,4,4,4,100,,,,,,,,,,,,,,,,,,,,,,,,,,,,,,,,,,,,,,,,,,,,,,,,,,,,,,,,,,,,,,,,,,,,,,,,,,,,,,,,,,,,,,,,,,,,,,,,,,,,,,,,,,,,,,,,,,,,,,,,,,,,,,,,,,,,,,,,,,,,,,,
1732009121,1732009121,97,0,4346.922852,4349.615234,4352.820313,4357.563965,4409.230957,4354.487305,4342.179688,4350.384766,4318.974121,4318.461426,4469.230957,4447.94873,4393.589844,4449.230957,3119,4,100,,,,0,4,4,4,4,4,4,4,4,4,4,4,4,4,4,100,,,,,,,,,,,,,,,,,,,,,,,,,,,,,,,,,,,,,,,,,,,,,,,,,,,,,,,,,,,,,,,,,,,,0,0,64,0.343971,1,0,,,,,,,,,,,,,,,,,,,,,,,,,,,,,,,,,,,,,,,,,,,,,,,,,,,,,,,,,,,,,,,,,,,,,,
1732009121,1732009121,98,0,4347.436035,4351.025879,4352.692383,4361.666504,4422.05127,4359.615234,4345.384766,4349.743652,4323.974121,4317.692383,4470.384766,4450.384766,4395.897461,4450.641113,2543,4,100,,,,0,4,4,4,4,4,4,4,4,4,4,4,4,4,4,100,,,,,,,,,,,,,,,,,,,,,,,,,,,,,,,,,,,,,,,,,,,,,,,,,,,,,,,,,,,,,,,,,,,,,,,,,,,,,,,,,,,,,,,,,,,,,,,,,,,,,,,,,,,,,,,,,,,,,,,,,,,,,,,,,,,,,,,,,,,,,,,
1732009121,1732009121,99,0,4352.94873,4358.205078,4360,4369.743652,4422.692383,4357.436035,4350.897461,4348.205078,4327.820313,4322.94873,4479.102539,4452.436035,4393.717773,4456.666504,2538,4,100,,,,0,4,4,4,4,4,4,4,4,4,4,4,4,4,4,100,,,,,,,,,,,,,,,,,,,,,,,,,,,,,,,,,,,,,,,,,,,,,,,,,,,,,,,,,,,,,,,,,,,,,,,,,,,,,,,,,,,,,,,,,,,,,,,,,,,,,,,,,,,,,,,,,,,,,,,,,,,,,,,,,,,,,,,,,,,,,,,
1732009121,1732009121,100,0,4358.077148,4364.487305,4367.563965,4375.384766,4413.846191,4354.615234,4347.94873,4354.102539,4327.94873,4326.794922,4481.282227,4457.05127,4388.846191,4461.025879,2977,4,100,,,,0,4,4,4,4,4,4,4,4,4,4,4,4,4,4,100,,,,,,,,,,,,,,,,,,,,,,,,,,,,,,,,,,,,,,,,,,,,,,,,,,,,,,,,,,,,,,,,,,,,,,,,,,,,,,,,,,,,,,,,,,,,,,,,,,,,,,,,,,,,,,,,,,,,,,,,,,,,,,,,,,,,,,,,,,,,,,,
1732009121,1732009121,101,0,4360.384766,4365.512695,4368.589844,4378.461426,4420.256348,4358.077148,4345,4360.641113,4329.230957,4327.436035,4483.717773,4463.205078,4391.538574,4464.230957,3119,4,100,,,,0,4,4,4,4,4,4,4,4,4,4,4,4,4,4,100,,,,,,,,,,,,,,,,,,,,,,,,,,,,,1,0,0,,,,,,,,,,,,,,,,,,,,,,,,,,,,,,,,,,,,,0,0,64,0.26208,1,0,1.139924,0.753946,0.414762,0.229106,0.101265,2.068814,0.623827,0.423258,0.25393,0.15508,0.71886,0.787221,0.424536,0.135334,0.088559,0.863977,0.755288,0.338548,0.151992,0.11146,0.678738,0.595233,0.384447,0.486148,0.28188,0.65214,0.394045,0.085507,0.145945,0.208016,0.872077,0.206342,0.177694,0.118034,0.084371,1.757554,0.441468,0.242337,0.134637,0.119011,1.575403,0.395485,0.296835,0.151805,0.131539,1.690134,1.716615,0.716999,0.387788,0.235249,1.832924,1.705218,0.543193,0.474019,0.210918,1.349356,0.947742,0.668453,0.242461,0.149598,3.890811,1.221869,1.291718,0.567023,0.246461,1.120381,1.22647,0.513767,0.289643,0.105739
1732009121,1732009121,102,0,4362.05127,4364.871582,4366.538574,4378.461426,4434.615234,4358.589844,4345.769043,4357.179688,4329.102539,4327.94873,4489.230957,4462.179688,4397.179688,4469.487305,2543,4,100,,,,0,4,4,4,4,4,4,4,4,4,4,4,4,4,4,100,,,,,,,,,,,,,,,,,,,,,,,,,,,,,,,,,,,,,,,,,,,,,,,,,,,,,,,,,,,,,,,,,,,,,,,,,,,,,,,,,,,,,,,,,,,,,,,,,,,,,,,,,,,,,,,,,,,,,,,,,,,,,,,,,,,,,,,,,,,,,,,
1732009121,1732009121,103,0,4361.794922,4366.538574,4368.589844,4375.641113,4432.179688,4356.410156,4345.897461,4355.128418,4327.692383,4327.307617,4489.230957,4463.589844,4386.922852,4470.512695,2538,4,100,,,,0,4,4,4,4,4,4,4,4,4,4,4,4,4,4,100,,,,,,,,,,,,,,,,,,,,,,,,,,,,,,,,,,,,,,,,,,,,,,,,,,,,,,,,,,,,,,,,,,,,,,,,,,,,,,,,,,,,,,,,,,,,,,,,,,,,,,,,,,,,,,,,,,,,,,,,,,,,,,,,,,,,,,,,,,,,,,,
1732009121,1732009121,104,0,4359.102539,4364.487305,4367.05127,4372.179688,4425.384766,4358.205078,4345.897461,4358.205078,4324.743652,4324.358887,4482.179688,4467.179688,4368.333496,4464.487305,2977,4,100,,,,0,4,4,4,4,4,4,4,4,4,4,4,4,4,4,100,,,,,,,,,,,,,,,,,,,,,,,,,,,,,,,,,,,,,,,,,,,,,,,,,,,,,,,,,,,,,,,,,,,,,,,,,,,,,,,,,,,,,,,,,,,,,,,,,,,,,,,,,,,,,,,,,,,,,,,,,,,,,,,,,,,,,,,,,,,,,,,
1732009121,1732009121,105,0,4359.230957,4361.794922,4359.615234,4372.179688,4428.717773,4356.666504,4344.615234,4357.563965,4322.307617,4324.487305,4488.205078,4465.128418,4384.487305,4466.794922,3119,4,100,,,,0,4,4,4,4,4,4,4,4,4,4,4,4,4,4,100,,,,,,,,,,,,,,,,,,,,,,,,,,,,,,,,,,,,,,,,,,,,,,,,,,,,,,,,,,,,,,,,,,,,0,0,64,0.26208,1,0,,,,,,,,,,,,,,,,,,,,,,,,,,,,,,,,,,,,,,,,,,,,,,,,,,,,,,,,,,,,,,,,,,,,,,
1732009121,1732009121,106,0,4363.077148,4358.589844,4358.077148,4373.846191,4427.94873,4350.512695,4340.512695,4356.666504,4325.641113,4337.307617,4508.077148,4468.205078,4421.666504,4475.512695,2543,4,100,,,,0,4,4,4,4,4,4,4,4,4,4,4,4,4,4,100,,,,,,,,,,,,,,,,,,,,,,,,,,,,,,,,,,,,,,,,,,,,,,,,,,,,,,,,,,,,,,,,,,,,,,,,,,,,,,,,,,,,,,,,,,,,,,,,,,,,,,,,,,,,,,,,,,,,,,,,,,,,,,,,,,,,,,,,,,,,,,,
1732009121,1732009121,107,0,4363.846191,4347.94873,4364.102539,4373.333496,4424.102539,4348.974121,4339.230957,4361.794922,4331.410156,4350.128418,4516.153809,4476.538574,4428.589844,4477.307617,2538,4,100,,,,0,4,4,4,4,4,4,4,4,4,4,4,4,4,4,100,,,,,,,,,,,,,,,,,,,,,,,,,,,,,,,,,,,,,,,,,,,,,,,,,,,,,,,,,,,,,,,,,,,,,,,,,,,,,,,,,,,,,,,,,,,,,,,,,,,,,,,,,,,,,,,,,,,,,,,,,,,,,,,,,,,,,,,,,,,,,,,
1732009121,1732009121,108,0,4362.307617,4337.692383,4366.282227,4371.282227,4424.615234,4353.846191,4344.743652,4366.025879,4335,4351.794922,4516.794922,4479.487305,4427.436035,4479.487305,2977,4,100,,,,0,4,4,4,4,4,4,4,4,4,4,4,4,4,4,100,,,,,,,,,,,,,,,,,,,,,,,,,,,,,,,,,,,,,,,,,,,,,,,,,,,,,,,,,,,,,,,,,,,,,,,,,,,,,,,,,,,,,,,,,,,,,,,,,,,,,,,,,,,,,,,,,,,,,,,,,,,,,,,,,,,,,,,,,,,,,,,
1732009121,1732009121,109,0,4358.974121,4332.436035,4363.974121,4366.922852,4427.436035,4358.717773,4350.384766,4368.333496,4339.871582,4352.05127,4522.94873,4481.410156,4441.794922,4483.205078,3119,4,100,,,,0,4,4,4,4,4,4,4,4,4,4,4,4,4,4,100,,,,,,,,,,,,,,,,,,,,,,,,,,,,,,,,,,,,,,,,,,,,,,,,,,,,,,,,,,,,,,,,,,,,0,0,64,0.26208,1,0,,,,,,,,,,,,,,,,,,,,,,,,,,,,,,,,,,,,,,,,,,,,,,,,,,,,,,,,,,,,,,,,,,,,,,
1732009121,1732009121,110,0,4348.205078,4323.461426,4357.692383,4357.692383,4424.358887,4356.666504,4344.743652,4365.897461,4336.666504,4350.128418,4517.692383,4475,4436.410156,4475.384766,2543,4,100,,,,0,4,4,4,4,4,4,4,4,4,4,4,4,4,4,100,,,,,,,,,,,,,,,,,,,,,,,,,,,,,,,,,,,,,,,,,,,,,,,,,,,,,,,,,,,,,,,,,,,,,,,,,,,,,,,,,,,,,,,,,,,,,,,,,,,,,,,,,,,,,,,,,,,,,,,,,,,,,,,,,,,,,,,,,,,,,,,
1732009121,1732009121,111,0,4337.05127,4314.743652,4345.769043,4348.461426,4415.512695,4349.487305,4336.282227,4354.871582,4322.692383,4335,4494.358887,4454.102539,4415.641113,4458.974121,2538,4,100,,,,0,4,4,4,4,4,4,4,4,4,4,4,4,4,4,100,,,,,,,,,,,,,,,,,,,,,,,,,,,,,,,,,,,,,,,,,,,,,,,,,,,,,,,,,,,,,,,,,,,,,,,,,,,,,,,,,,,,,,,,,,,,,,,,,,,,,,,,,,,,,,,,,,,,,,,,,,,,,,,,,,,,,,,,,,,,,,,
1732009121,1732009121,112,0,4334.102539,4311.410156,4340.128418,4344.615234,4412.563965,4348.205078,4342.436035,4350.512695,4319.615234,4314.615234,4483.077148,4444.615234,4411.153809,4449.615234,2977,4,100,,,,0,4,4,4,4,4,4,4,4,4,4,4,4,4,4,100,,,,,,,,,,,,,,,,,,,,,,,,,,,,,,,,,,,,,,,,,,,,,,,,,,,,,,,,,,,,,,,,,,,,,,,,,,,,,,,,,,,,,,,,,,,,,,,,,,,,,,,,,,,,,,,,,,,,,,,,,,,,,,,,,,,,,,,,,,,,,,,
1732009121,1732009121,113,0,4329.487305,4305.384766,4341.153809,4341.922852,4412.436035,4352.820313,4347.436035,4351.410156,4321.922852,4307.436035,4486.153809,4447.436035,4412.179688,4446.410156,3119,4,100,,,,0,4,4,4,4,4,4,4,4,4,4,4,4,4,4,100,,,,,,,,,,,,,,,,,,,,,,,,,,,,,,,,,,,,,,,,,,,,,,,,,,,,,,,,,,,,,,,,,,,,0,0,64,0.26208,1,0,,,,,,,,,,,,,,,,,,,,,,,,,,,,,,,,,,,,,,,,,,,,,,,,,,,,,,,,,,,,,,,,,,,,,,
1732009121,1732009121,114,0,4334.487305,4306.282227,4347.692383,4347.307617,4417.307617,4356.666504,4343.717773,4359.102539,4322.436035,4318.205078,4495.256348,4456.410156,4420.641113,4454.358887,2543,4,100,,,,0,4,4,4,4,4,4,4,4,4,4,4,4,4,4,100,,,,,,,,,,,,,,,,,,,,,,,,,,,,,,,,,,,,,,,,,,,,,,,,,,,,,,,,,,,,,,,,,,,,,,,,,,,,,,,,,,,,,,,,,,,,,,,,,,,,,,,,,,,,,,,,,,,,,,,,,,,,,,,,,,,,,,,,,,,,,,,
1732009121,1732009121,115,0,4352.307617,4320.384766,4360.256348,4360.512695,4426.025879,4358.717773,4348.205078,4376.794922,4335.256348,4338.333496,4515.384766,4477.307617,4443.974121,4474.102539,2538,4,100,,,,0,4,4,4,4,4,4,4,4,4,4,4,4,4,4,100,,,,,,,,,,,,,,,,,,,,,,,,,,,,,,,,,,,,,,,,,,,,,,,,,,,,,,,,,,,,,,,,,,,,,,,,,,,,,,,,,,,,,,,,,,,,,,,,,,,,,,,,,,,,,,,,,,,,,,,,,,,,,,,,,,,,,,,,,,,,,,,
1732009121,1732009121,116,0,4358.077148,4327.692383,4366.410156,4366.410156,4427.820313,4357.05127,4353.077148,4382.436035,4346.794922,4350.384766,4528.846191,4488.333496,4458.205078,4483.077148,2977,4,100,,,,0,4,4,4,4,4,4,4,4,4,4,4,4,4,4,100,,,,,,,,,,,,,,,,,,,,,,,,,,,,,,,,,,,,,,,,,,,,,,,,,,,,,,,,,,,,,,,,,,,,,,,,,,,,,,,,,,,,,,,,,,,,,,,,,,,,,,,,,,,,,,,,,,,,,,,,,,,,,,,,,,,,,,,,,,,,,,,
1732009121,1732009121,117,0,4351.538574,4321.025879,4362.820313,4362.692383,4425.769043,4353.333496,4347.179688,4369.358887,4338.589844,4347.436035,4522.436035,4480.256348,4454.487305,4475.128418,3119,4,100,,,,0,4,4,4,4,4,4,4,4,4,4,4,4,4,4,100,,,,,,,,,,,,,,,,,,,,,,,,,,,,,1,0,0,,,,,,,,,,,,,,,,,,,,,,,,,,,,,,,,,,,,,0,0,64,0.267076,1,0,2.408037,1.046616,0.490118,0.238064,0.107032,3.587306,0.796324,0.473285,0.249495,0.157677,0.924901,0.835141,0.339398,0.125638,0.089074,1.327403,0.785322,0.364306,0.142949,0.113433,0.780076,0.579753,0.453927,0.476125,0.274908,0.598067,0.393368,0.078112,0.140675,0.211986,0.785351,0.238404,0.205517,0.120053,0.089758,1.784299,0.51064,0.313271,0.13983,0.125588,1.654247,0.544736,0.415259,0.152348,0.143425,1.939792,1.960028,0.867992,0.416571,0.239953,2.280374,1.752733,0.537077,0.481432,0.190439,1.5482,0.901085,0.629458,0.234003,0.150861,5.298392,1.152502,1.354685,0.559239,0.21222,1.711789,1.217933,0.465749,0.286211,0.109657
1732009121,1732009121,118,0,4347.563965,4315.256348,4357.94873,4358.461426,4425.384766,4350.256348,4340.897461,4363.461426,4328.205078,4341.538574,4512.307617,4470,4446.538574,4466.538574,2543,4,100,,,,0,4,4,4,4,4,4,4,4,4,4,4,4,4,4,100,,,,,,,,,,,,,,,,,,,,,,,,,,,,,,,,,,,,,,,,,,,,,,,,,,,,,,,,,,,,,,,,,,,,,,,,,,,,,,,,,,,,,,,,,,,,,,,,,,,,,,,,,,,,,,,,,,,,,,,,,,,,,,,,,,,,,,,,,,,,,,,
1732009121,1732009121,119,0,4343.205078,4318.846191,4355.384766,4360.897461,4423.717773,4349.615234,4342.820313,4372.563965,4331.410156,4341.282227,4512.94873,4470.641113,4442.820313,4467.05127,2538,4,100,,,,0,4,4,4,4,4,4,4,4,4,4,4,4,4,4,100,,,,,,,,,,,,,,,,,,,,,,,,,,,,,,,,,,,,,,,,,,,,,,,,,,,,,,,,,,,,,,,,,,,,,,,,,,,,,,,,,,,,,,,,,,,,,,,,,,,,,,,,,,,,,,,,,,,,,,,,,,,,,,,,,,,,,,,,,,,,,,,
1732009121,1732009121,120,0,4339.230957,4317.563965,4353.077148,4361.282227,4424.487305,4352.94873,4347.820313,4373.974121,4335.512695,4342.563965,4513.589844,4472.05127,4437.94873,4466.666504,2977,4,100,,,,0,4,4,4,4,4,4,4,4,4,4,4,4,4,4,100,,,,,,,,,,,,,,,,,,,,,,,,,,,,,,,,,,,,,,,,,,,,,,,,,,,,,,,,,,,,,,,,,,,,,,,,,,,,,,,,,,,,,,,,,,,,,,,,,,,,,,,,,,,,,,,,,,,,,,,,,,,,,,,,,,,,,,,,,,,,,,,
1732009121,1732009121,121,0,4340.384766,4310.641113,4352.179688,4351.410156,4427.179688,4356.794922,4348.974121,4370.897461,4336.410156,4342.307617,4509.230957,4468.077148,4430.128418,4461.153809,3119,4,100,,,,0,4,4,4,4,4,4,4,4,4,4,4,4,4,4,100,,,,,,,,,,,,,,,,,,,,,,,,,,,,,,,,,,,,,,,,,,,,,,,,,,,,,,,,,,,,,,,,,,,,0,0,64,0.267076,1,0,,,,,,,,,,,,,,,,,,,,,,,,,,,,,,,,,,,,,,,,,,,,,,,,,,,,,,,,,,,,,,,,,,,,,,
1732009121,1732009121,122,0,4341.922852,4308.974121,4353.846191,4348.333496,4425.769043,4358.589844,4347.820313,4373.333496,4337.820313,4342.436035,4507.179688,4467.820313,4431.410156,4460.897461,2543,4,100,,,,0,4,4,4,4,4,4,4,4,4,4,4,4,4,4,100,,,,,,,,,,,,,,,,,,,,,,,,,,,,,,,,,,,,,,,,,,,,,,,,,,,,,,,,,,,,,,,,,,,,,,,,,,,,,,,,,,,,,,,,,,,,,,,,,,,,,,,,,,,,,,,,,,,,,,,,,,,,,,,,,,,,,,,,,,,,,,,
1732009121,1732009121,123,0,4340.769043,4310.128418,4356.922852,4358.846191,4426.282227,4358.717773,4346.794922,4373.589844,4335.512695,4344.102539,4505.641113,4469.487305,4438.205078,4464.358887,2538,4,100,,,,0,4,4,4,4,4,4,4,4,4,4,4,4,4,4,100,,,,,,,,,,,,,,,,,,,,,,,,,,,,,,,,,,,,,,,,,,,,,,,,,,,,,,,,,,,,,,,,,,,,,,,,,,,,,,,,,,,,,,,,,,,,,,,,,,,,,,,,,,,,,,,,,,,,,,,,,,,,,,,,,,,,,,,,,,,,,,,
1732009121,1732009121,124,0,4340.897461,4311.153809,4357.436035,4361.153809,4427.820313,4354.487305,4342.563965,4368.846191,4331.922852,4343.717773,4503.589844,4464.487305,4439.487305,4463.333496,2977,4,100,,,,0,4,4,4,4,4,4,4,4,4,4,4,4,4,4,100,,,,,,,,,,,,,,,,,,,,,,,,,,,,,,,,,,,,,,,,,,,,,,,,,,,,,,,,,,,,,,,,,,,,,,,,,,,,,,,,,,,,,,,,,,,,,,,,,,,,,,,,,,,,,,,,,,,,,,,,,,,,,,,,,,,,,,,,,,,,,,,
1732009121,1732009121,125,0,4340.384766,4313.589844,4352.820313,4356.153809,4425,4349.102539,4340.128418,4361.410156,4327.05127,4337.307617,4498.461426,4456.025879,4439.871582,4460,3119,4,100,,,,0,4,4,4,4,4,4,4,4,4,4,4,4,4,4,100,,,,,,,,,,,,,,,,,,,,,,,,,,,,,,,,,,,,,,,,,,,,,,,,,,,,,,,,,,,,,,,,,,,,0,0,64,0.267076,1,0,,,,,,,,,,,,,,,,,,,,,,,,,,,,,,,,,,,,,,,,,,,,,,,,,,,,,,,,,,,,,,,,,,,,,,
1732009121,1732009121,126,0,4342.05127,4316.282227,4352.692383,4358.846191,4426.922852,4354.743652,4342.563965,4359.102539,4326.666504,4334.871582,4496.666504,4459.358887,4445.128418,4463.077148,2543,4,100,,,,0,4,4,4,4,4,4,4,4,4,4,4,4,4,4,100,,,,,,,,,,,,,,,,,,,,,,,,,,,,,,,,,,,,,,,,,,,,,,,,,,,,,,,,,,,,,,,,,,,,,,,,,,,,,,,,,,,,,,,,,,,,,,,,,,,,,,,,,,,,,,,,,,,,,,,,,,,,,,,,,,,,,,,,,,,,,,,
1732009121,1732009121,127,0,4345.128418,4319.487305,4357.436035,4360.384766,4431.025879,4359.358887,4338.974121,4359.358887,4332.94873,4340.128418,4504.102539,4465.384766,4448.974121,4467.692383,100,4,100,,,,0,4,4,4,4,4,4,4,4,4,4,4,4,4,4,100,,,,,,,,,,,,,,,,,,,,,,,,,,,,,,,,,,,,,,,,,,,,,,,,,,,,,,,,,,,,,,,,,,,,,,,,,,,,,,,,,,,,,,,,,,,,,,,,,,,,,,,,,,,,,,,,,,,,,,,,,,,,,,,,,,,,,,,,,,,,,,,
1732009121,1732009121,0,0,4345.384766,4320.641113,4356.153809,4358.077148,4426.922852,4354.230957,4333.461426,4360,4335.897461,4337.179688,4507.692383,4462.94873,4449.358887,4467.94873,2426,4,100,,,,0,4,4,4,4,4,4,4,4,4,4,4,4,4,4,100,,,,,,,,,,,,,,,,,,,,,,,,,,,,,,,,,,,,,,,,,,,,,,,,,,,,,,,,,,,,,,,,,,,,,,,,,,,,,,,,,,,,,,,,,,,,,,,,,,,,,,,,,,,,,,,,,,,,,,,,,,,,,,,,,,,,,,,,,,,,,,,
1732009121,1732009121,1,0,4342.179688,4316.025879,4351.282227,4357.307617,4426.922852,4353.846191,4338.333496,4358.846191,4331.410156,4326.153809,4501.794922,4459.230957,4450,4465.641113,2287,4,100,,,,0,4,4,4,4,4,4,4,4,4,4,4,4,4,4,100,,,,,,,,,,,,,,,,,,,,,,,,,,,,,,,,,,,,,,,,,,,,,,,,,,,,,,,,,,,,,,,,,,,,0,0,64,0.267076,1,0,,,,,,,,,,,,,,,,,,,,,,,,,,,,,,,,,,,,,,,,,,,,,,,,,,,,,,,,,,,,,,,,,,,,,,
1732009121,1732009121,2,0,4340.512695,4313.333496,4348.974121,4355.512695,4435.128418,4357.692383,4343.205078,4351.666504,4327.820313,4325.769043,4500,4456.282227,4447.307617,4460.897461,2114,4,100,,,,0,4,4,4,4,4,4,4,4,4,4,4,4,4,4,100,,,,,,,,,,,,,,,,,,,,,,,,,,,,,,,,,,,,,,,,,,,,,,,,,,,,,,,,,,,,,,,,,,,,,,,,,,,,,,,,,,,,,,,,,,,,,,,,,,,,,,,,,,,,,,,,,,,,,,,,,,,,,,,,,,,,,,,,,,,,,,,
1732009121,1732009121,3,0,4347.179688,4321.282227,4352.307617,4359.102539,4436.025879,4360.897461,4346.538574,4352.179688,4332.436035,4339.615234,4508.846191,4462.94873,4448.205078,4465.512695,2287,4,100,,,,0,4,4,4,4,4,4,4,4,4,4,4,4,4,4,100,,,,,,,,,,,,,,,,,,,,,,,,,,,,,,,,,,,,,,,,,,,,,,,,,,,,,,,,,,,,,,,,,,,,,,,,,,,,,,,,,,,,,,,,,,,,,,,,,,,,,,,,,,,,,,,,,,,,,,,,,,,,,,,,,,,,,,,,,,,,,,,
1732009121,1732009121,4,0,4352.820313,4325.384766,4358.205078,4365.128418,4430.384766,4366.538574,4353.461426,4360.769043,4334.871582,4343.974121,4512.563965,4471.794922,4453.974121,4478.461426,2431,4,100,,,,0,4,4,4,4,4,4,4,4,4,4,4,4,4,4,100,,,,,,,,,,,,,,,,,,,,,,,,,,,,,,,,,,,,,,,,,,,,,,,,,,,,,,,,,,,,,,,,,,,,,,,,,,,,,,,,,,,,,,,,,,,,,,,,,,,,,,,,,,,,,,,,,,,,,,,,,,,,,,,,,,,,,,,,,,,,,,,
1732009121,1732009121,5,0,4350.512695,4326.538574,4356.666504,4363.461426,4428.717773,4366.282227,4351.153809,4363.717773,4331.282227,4333.717773,4508.846191,4469.487305,4453.333496,4488.333496,2376,4,100,,,,0,4,4,4,4,4,4,4,4,4,4,4,4,4,4,100,,,,,,,,,,,,,,,,,,,,,,,,,,,,,1,0,0,,,,,,,,,,,,,,,,,,,,,,,,,,,,,,,,,,,,,0,0,64,0.295812,1,0,4.744246,1.472503,0.619877,0.253969,0.114073,6.153287,1.077253,0.599864,0.265419,0.165366,1.311235,0.901781,0.300342,0.126309,0.086944,2.005151,0.845401,0.399487,0.140994,0.114384,0.889798,0.529384,0.505236,0.447049,0.26729,0.521527,0.377339,0.079824,0.126085,0.206183,0.648635,0.270708,0.228799,0.116128,0.093723,1.633925,0.531354,0.385746,0.140958,0.123538,1.555879,0.692792,0.531406,0.157801,0.15075,2.087059,2.194041,1.021644,0.439693,0.238677,2.768269,1.745332,0.557514,0.50397,0.16309,1.915055,0.876764,0.60418,0.238094,0.146459,7.074225,1.146304,1.348124,0.575031,0.172745,2.961193,1.256904,0.467807,0.294575,0.109964
1732009121,1732009121,6,0,4347.94873,4330.512695,4353.205078,4359.487305,4426.666504,4356.538574,4342.563965,4358.589844,4329.871582,4328.205078,4507.307617,4464.871582,4448.205078,4496.410156,1816,4,100,,,,0,4,4,4,4,4,4,4,4,4,4,4,4,4,4,100,,,,,,,,,,,,,,,,,,,,,,,,,,,,,,,,,,,,,,,,,,,,,,,,,,,,,,,,,,,,,,,,,,,,,,,,,,,,,,,,,,,,,,,,,,,,,,,,,,,,,,,,,,,,,,,,,,,,,,,,,,,,,,,,,,,,,,,,,,,,,,,
1732009121,1732009121,7,0,4345.256348,4327.179688,4356.153809,4357.563965,4417.820313,4355.512695,4341.922852,4355,4326.282227,4322.94873,4500.256348,4460.641113,4434.102539,4495.641113,1983,4,100,,,,0,4,4,4,4,4,4,4,4,4,4,4,4,4,4,100,,,,,,,,,,,,,,,,,,,,,,,,,,,,,,,,,,,,,,,,,,,,,,,,,,,,,,,,,,,,,,,,,,,,,,,,,,,,,,,,,,,,,,,,,,,,,,,,,,,,,,,,,,,,,,,,,,,,,,,,,,,,,,,,,,,,,,,,,,,,,,,
1732009121,1732009121,8,0,4341.666504,4327.05127,4356.922852,4355.769043,4412.692383,4362.05127,4342.94873,4357.05127,4321.538574,4314.487305,4492.307617,4456.410156,4423.717773,4489.358887,2014,4,100,,,,0,4,4,4,4,4,4,4,4,4,4,4,4,4,4,100,,,,,,,,,,,,,,,,,,,,,,,,,,,,,,,,,,,,,,,,,,,,,,,,,,,,,,,,,,,,,,,,,,,,,,,,,,,,,,,,,,,,,,,,,,,,,,,,,,,,,,,,,,,,,,,,,,,,,,,,,,,,,,,,,,,,,,,,,,,,,,,
1732009121,1732009121,9,0,4339.743652,4341.282227,4350.128418,4353.717773,4414.615234,4358.333496,4340.256348,4356.666504,4323.077148,4315.128418,4496.794922,4453.717773,4441.922852,4491.794922,2468,4,100,,,,0,4,4,4,4,4,4,4,4,4,4,4,4,4,4,100,,,,,,,,,,,,,,,,,,,,,,,,,,,,,,,,,,,,,,,,,,,,,,,,,,,,,,,,,,,,,,,,,,,,0,0,64,0.295812,1,0,,,,,,,,,,,,,,,,,,,,,,,,,,,,,,,,,,,,,,,,,,,,,,,,,,,,,,,,,,,,,,,,,,,,,,
1732009121,1732009121,10,0,4334.230957,4346.153809,4346.153809,4350,4414.487305,4351.153809,4340.128418,4352.307617,4325.384766,4317.179688,4500.769043,4450.897461,4460.897461,4492.307617,2545,4,100,,,,0,4,4,4,4,4,4,4,4,4,4,4,4,4,4,100,,,,,,,,,,,,,,,,,,,,,,,,,,,,,,,,,,,,,,,,,,,,,,,,,,,,,,,,,,,,,,,,,,,,,,,,,,,,,,,,,,,,,,,,,,,,,,,,,,,,,,,,,,,,,,,,,,,,,,,,,,,,,,,,,,,,,,,,,,,,,,,
1732009121,1732009121,11,0,4327.05127,4337.820313,4344.230957,4346.410156,4410.128418,4350.384766,4337.563965,4348.589844,4325.512695,4310,4494.487305,4446.666504,4454.102539,4481.794922,2546,4,100,,,,0,4,4,4,4,4,4,4,4,4,4,4,4,4,4,100,,,,,,,,,,,,,,,,,,,,,,,,,,,,,,,,,,,,,,,,,,,,,,,,,,,,,,,,,,,,,,,,,,,,,,,,,,,,,,,,,,,,,,,,,,,,,,,,,,,,,,,,,,,,,,,,,,,,,,,,,,,,,,,,,,,,,,,,,,,,,,,
1732009121,1732009121,12,0,4329.102539,4344.615234,4339.358887,4350.128418,4410.512695,4354.743652,4334.743652,4349.230957,4327.563965,4308.846191,4492.820313,4446.282227,4456.922852,4479.487305,2979,4,100,,,,0,4,4,4,4,4,4,4,4,4,4,4,4,4,4,100,,,,,,,,,,,,,,,,,,,,,,,,,,,,,,,,,,,,,,,,,,,,,,,,,,,,,,,,,,,,,,,,,,,,,,,,,,,,,,,,,,,,,,,,,,,,,,,,,,,,,,,,,,,,,,,,,,,,,,,,,,,,,,,,,,,,,,,,,,,,,,,
1732009121,1732009121,13,0,4333.846191,4357.94873,4339.743652,4354.615234,4413.846191,4355.897461,4339.230957,4348.461426,4322.307617,4313.205078,4497.436035,4447.05127,4475.512695,4486.282227,3132,4,100,,,,0,4,4,4,4,4,4,4,4,4,4,4,4,4,4,100,,,,,,,,,,,,,,,,,,,,,,,,,,,,,,,,,,,,,,,,,,,,,,,,,,,,,,,,,,,,,,,,,,,,0,0,64,0.295812,1,0,,,,,,,,,,,,,,,,,,,,,,,,,,,,,,,,,,,,,,,,,,,,,,,,,,,,,,,,,,,,,,,,,,,,,,
1732009121,1732009121,14,0,4332.436035,4356.410156,4343.077148,4352.179688,4410.256348,4351.410156,4337.94873,4341.794922,4309.743652,4308.461426,4494.102539,4445.769043,4476.666504,4484.102539,2545,4,100,,,,0,4,4,4,4,4,4,4,4,4,4,4,4,4,4,100,,,,,,,,,,,,,,,,,,,,,,,,,,,,,,,,,,,,,,,,,,,,,,,,,,,,,,,,,,,,,,,,,,,,,,,,,,,,,,,,,,,,,,,,,,,,,,,,,,,,,,,,,,,,,,,,,,,,,,,,,,,,,,,,,,,,,,,,,,,,,,,
1732009121,1732009121,15,0,4331.666504,4355.641113,4342.179688,4352.05127,4407.94873,4350.769043,4331.025879,4340.512695,4310.512695,4304.102539,4490.897461,4448.205078,4469.487305,4483.461426,2546,4,100,,,,0,4,4,4,4,4,4,4,4,4,4,4,4,4,4,100,,,,,,,,,,,,,,,,,,,,,,,,,,,,,,,,,,,,,,,,,,,,,,,,,,,,,,,,,,,,,,,,,,,,,,,,,,,,,,,,,,,,,,,,,,,,,,,,,,,,,,,,,,,,,,,,,,,,,,,,,,,,,,,,,,,,,,,,,,,,,,,
1732009121,1732009121,16,0,4336.282227,4362.179688,4344.487305,4353.589844,4414.615234,4356.922852,4337.94873,4348.589844,4323.589844,4305.384766,4498.077148,4454.487305,4467.179688,4493.589844,0,4,100,,,,0,4,4,4,4,4,4,4,4,4,4,4,4,4,4,100,,,,,,,,,,,,,,,,,,,,,,,,,,,,,,,,,,,,,,,,,,,,,,,,,,,,,,,,,,,,,,,,,,,,,,,,,,,,,,,,,,,,,,,,,,,,,,,,,,,,,,,,,,,,,,,,,,,,,,,,,,,,,,,,,,,,,,,,,,,,,,,
1732009121,1732009121,17,0,4341.153809,4365.897461,4352.94873,4356.922852,4412.436035,4362.179688,4348.077148,4354.358887,4326.794922,4306.666504,4502.179688,4459.487305,4463.205078,4501.922852,0,4,100,,,,0,4,4,4,4,4,4,4,4,4,4,4,4,4,4,100,,,,,,,,,,,,,,,,,,,,,,,,,,,,,,,,,,,,,,,,,,,,,,,,,,,,,,,,,,,,,,,,,,,,0,0,64,0.295812,1,0,,,,,,,,,,,,,,,,,,,,,,,,,,,,,,,,,,,,,,,,,,,,,,,,,,,,,,,,,,,,,,,,,,,,,,
1732009121,1732009121,18,0,4342.05127,4363.077148,4356.538574,4357.94873,4403.205078,4358.717773,4342.436035,4353.077148,4322.692383,4308.846191,4498.717773,4459.487305,4464.871582,4507.436035,0,4,100,,,,0,4,4,4,4,4,4,4,4,4,4,4,4,4,4,100,,,,,,,,,,,,,,,,,,,,,,,,,,,,,,,,,,,,,,,,,,,,,,,,,,,,,,,,,,,,,,,,,,,,,,,,,,,,,,,,,,,,,,,,,,,,,,,,,,,,,,,,,,,,,,,,,,,,,,,,,,,,,,,,,,,,,,,,,,,,,,,
1732009121,1732009121,19,0,4341.922852,4355.897461,4354.358887,4352.179688,4406.410156,4350.897461,4335.769043,4353.461426,4324.230957,4310.769043,4496.025879,4455.128418,4461.922852,4512.179688,0,4,100,,,,0,4,4,4,4,4,4,4,4,4,4,4,4,4,4,100,,,,,,,,,,,,,,,,,,,,,,,,,,,,,,,,,,,,,,,,,,,,,,,,,,,,,,,,,,,,,,,,,,,,,,,,,,,,,,,,,,,,,,,,,,,,,,,,,,,,,,,,,,,,,,,,,,,,,,,,,,,,,,,,,,,,,,,,,,,,,,,
1732009121,1732009121,20,0,4341.153809,4353.717773,4353.461426,4351.153809,4413.717773,4350.769043,4340.512695,4357.94873,4327.820313,4309.871582,4496.025879,4455.512695,4451.153809,4517.692383,0,4,100,,,,0,4,4,4,4,4,4,4,4,4,4,4,4,4,4,100,,,,,,,,,,,,,,,,,,,,,,,,,,,,,,,,,,,,,,,,,,,,,,,,,,,,,,,,,,,,,,,,,,,,,,,,,,,,,,,,,,,,,,,,,,,,,,,,,,,,,,,,,,,,,,,,,,,,,,,,,,,,,,,,,,,,,,,,,,,,,,,
1732009121,1732009121,21,0,4342.563965,4357.692383,4357.692383,4357.820313,4412.692383,4353.846191,4347.05127,4361.666504,4330.128418,4311.025879,4497.05127,4461.025879,4453.333496,4527.05127,0,4,100,,,,0,4,4,4,4,4,4,4,4,4,4,4,4,4,4,100,1,100,4,4,4,4,4,4,4,4,4,4,4,4,4,4,,,,,,,,,,,,,1,0,0,,,,,,,,,,,,,,,,,,,,,,,,,,,,,,,,,,,,,0,0,64,0.440769,1,0,7.977545,1.953034,0.761813,0.272925,0.120163,9.449497,1.420713,0.755116,0.293447,0.173706,1.815594,0.944269,0.29127,0.138635,0.081973,2.810413,0.920461,0.432198,0.145847,0.112799,0.968579,0.467453,0.519859,0.396091,0.25782,0.434004,0.345924,0.087151,0.107769,0.190271,0.488833,0.299548,0.238486,0.108396,0.094673,1.373087,0.499641,0.442038,0.144121,0.115031,1.343345,0.793424,0.613042,0.172109,0.14916,2.117868,2.31234,1.132923,0.446562,0.232455,3.258244,1.681111,0.582225,0.541708,0.136653,2.460721,0.867712,0.579751,0.257476,0.137235,9.00806,1.19508,1.286396,0.608401,0.144772,4.940144,1.324734,0.508305,0.310684,0.107329
1732009121,1732009121,22,0,4348.846191,4357.820313,4363.846191,4360.769043,4410.128418,4352.05127,4349.102539,4365,4333.461426,4320.897461,4502.436035,4463.974121,4466.410156,4532.94873,0,4,100,,,,0,4,4,4,4,4,4,4,4,4,4,4,4,4,4,100,,,,,,,,,,,,,,,,,,,,,,,,,,,,,,,,,,,,,,,,,,,,,,,,,,,,,,,,,,,,,,,,,,,,,,,,,,,,,,,,,,,,,,,,,,,,,,,,,,,,,,,,,,,,,,,,,,,,,,,,,,,,,,,,,,,,,,,,,,,,,,,
1732009121,1732009121,23,0,4349.487305,4354.487305,4365.897461,4357.436035,4408.846191,4355.256348,4347.05127,4365.512695,4333.846191,4327.05127,4510,4463.717773,4467.692383,4530.512695,0,4,100,,,,0,4,4,4,4,4,4,4,4,4,4,4,4,4,4,100,,,,,,,,,,,,,,,,,,,,,,,,,,,,,,,,,,,,,,,,,,,,,,,,,,,,,,,,,,,,,,,,,,,,,,,,,,,,,,,,,,,,,,,,,,,,,,,,,,,,,,,,,,,,,,,,,,,,,,,,,,,,,,,,,,,,,,,,,,,,,,,
1732009121,1732009121,24,0,4343.333496,4353.717773,4365.384766,4358.974121,4408.717773,4362.436035,4348.077148,4366.922852,4328.974121,4325.512695,4509.230957,4464.230957,4463.077148,4528.717773,0,4,100,,,,0,4,4,4,4,4,4,4,4,4,4,4,4,4,4,100,,,,,,,,,,,,,,,,,,,,,,,,,,,,,,,,,,,,,,,,,,,,,,,,,,,,,,,,,,,,,,,,,,,,,,,,,,,,,,,,,,,,,,,,,,,,,,,,,,,,,,,,,,,,,,,,,,,,,,,,,,,,,,,,,,,,,,,,,,,,,,,
1732009121,1732009121,25,0,4344.358887,4354.871582,4366.666504,4360.384766,4412.94873,4360,4351.153809,4370.897461,4330.128418,4325.512695,4505.641113,4465.128418,4464.487305,4532.05127,0,4,100,,,,0,4,4,4,4,4,4,4,4,4,4,4,4,4,4,100,,,,,,,,,,,,,,,,,,,,,,,,,,,,,,,,,,,,,,,,,,,,,,,,,,,,,,,,,,,,,,,,,,,,0,0,64,0.440769,1,0,,,,,,,,,,,,,,,,,,,,,,,,,,,,,,,,,,,,,,,,,,,,,,,,,,,,,,,,,,,,,,,,,,,,,,
1732009121,1732009121,26,0,4349.358887,4357.563965,4366.794922,4359.743652,4417.05127,4353.589844,4348.846191,4367.436035,4338.077148,4328.846191,4509.230957,4465.897461,4466.282227,4531.794922,0,4,100,,,,0,4,4,4,4,4,4,4,4,4,4,4,4,4,4,100,,,,,,,,,,,,,,,,,,,,,,,,,,,,,,,,,,,,,,,,,,,,,,,,,,,,,,,,,,,,,,,,,,,,,,,,,,,,,,,,,,,,,,,,,,,,,,,,,,,,,,,,,,,,,,,,,,,,,,,,,,,,,,,,,,,,,,,,,,,,,,,
1732009121,1732009121,27,0,4350.641113,4357.820313,4366.794922,4362.307617,4416.666504,4355.769043,4346.538574,4362.692383,4338.205078,4331.410156,4515.769043,4469.358887,4466.794922,4530.384766,0,4,100,,,,0,4,4,4,4,4,4,4,4,4,4,4,4,4,4,100,,,,,,,,,,,,,,,,,,,,,,,,,,,,,,,,,,,,,,,,,,,,,,,,,,,,,,,,,,,,,,,,,,,,,,,,,,,,,,,,,,,,,,,,,,,,,,,,,,,,,,,,,,,,,,,,,,,,,,,,,,,,,,,,,,,,,,,,,,,,,,,
1732009121,1732009121,28,0,4356.666504,4356.282227,4372.436035,4365.641113,4414.871582,4357.563965,4345.512695,4366.153809,4335.384766,4334.358887,4516.794922,4476.153809,4467.436035,4535.256348,0,4,100,,,,0,4,4,4,4,4,4,4,4,4,4,4,4,4,4,100,,,,,,,,,,,,,,,,,,,,,,,,,,,,,,,,,,,,,,,,,,,,,,,,,,,,,,,,,,,,,,,,,,,,,,,,,,,,,,,,,,,,,,,,,,,,,,,,,,,,,,,,,,,,,,,,,,,,,,,,,,,,,,,,,,,,,,,,,,,,,,,
1732009121,1732009121,29,0,4363.846191,4362.563965,4380,4367.563965,4413.846191,4357.436035,4343.077148,4366.538574,4339.358887,4338.205078,4513.205078,4479.743652,4464.230957,4540,0,4,100,,,,0,4,4,4,4,4,4,4,4,4,4,4,4,4,4,100,,,,,,,,,,,,,,,,,,,,,,,,,,,,,,,,,,,,,,,,,,,,,,,,,,,,,,,,,,,,,,,,,,,,0,0,64,0.440769,1,0,,,,,,,,,,,,,,,,,,,,,,,,,,,,,,,,,,,,,,,,,,,,,,,,,,,,,,,,,,,,,,,,,,,,,,
1732009121,1732009121,30,0,4361.922852,4366.025879,4383.205078,4366.410156,4411.922852,4357.94873,4342.94873,4360.384766,4337.563965,4336.025879,4511.538574,4478.846191,4461.025879,4539.871582,0,4,100,,,,0,4,4,4,4,4,4,4,4,4,4,4,4,4,4,100,,,,,,,,,,,,,,,,,,,,,,,,,,,,,,,,,,,,,,,,,,,,,,,,,,,,,,,,,,,,,,,,,,,,,,,,,,,,,,,,,,,,,,,,,,,,,,,,,,,,,,,,,,,,,,,,,,,,,,,,,,,,,,,,,,,,,,,,,,,,,,,
1732009121,1732009121,31,0,4357.05127,4356.794922,4383.717773,4364.615234,4410.769043,4356.153809,4341.794922,4358.077148,4331.666504,4329.358887,4512.94873,4476.922852,4464.358887,4536.410156,0,4,100,,,,0,4,4,4,4,4,4,4,4,4,4,4,4,4,4,100,,,,,,,,,,,,,,,,,,,,,,,,,,,,,,,,,,,,,,,,,,,,,,,,,,,,,,,,,,,,,,,,,,,,,,,,,,,,,,,,,,,,,,,,,,,,,,,,,,,,,,,,,,,,,,,,,,,,,,,,,,,,,,,,,,,,,,,,,,,,,,,
1732009121,1732009121,32,0,4355.512695,4352.436035,4385.512695,4365.128418,4418.077148,4355.897461,4338.974121,4362.307617,4334.487305,4326.282227,4513.974121,4478.461426,4465.641113,4535.769043,0,4,100,,,,0,4,4,4,4,4,4,4,4,4,4,4,4,4,4,100,,,,,,,,,,,,,,,,,,,,,,,,,,,,,,,,,,,,,,,,,,,,,,,,,,,,,,,,,,,,,,,,,,,,,,,,,,,,,,,,,,,,,,,,,,,,,,,,,,,,,,,,,,,,,,,,,,,,,,,,,,,,,,,,,,,,,,,,,,,,,,,
1732009121,1732009121,33,0,4354.743652,4356.282227,4385.384766,4365.512695,4423.974121,4356.410156,4340.128418,4363.974121,4336.794922,4326.666504,4511.922852,4479.230957,4463.333496,4536.153809,0,4,100,,,,0,4,4,4,4,4,4,4,4,4,4,4,4,4,4,100,,,,,,,,,,,,,,,,,,,,,,,,,,,,,,,,,,,,,,,,,,,,,,,,,,,,,,,,,,,,,,,,,,,,0,0,64,0.440769,1,0,,,,,,,,,,,,,,,,,,,,,,,,,,,,,,,,,,,,,,,,,,,,,,,,,,,,,,,,,,,,,,,,,,,,,,
1732009121,1732009121,34,0,4352.05127,4354.487305,4383.205078,4365.384766,4419.743652,4357.307617,4344.358887,4359.871582,4334.615234,4325.897461,4509.615234,4478.461426,4463.077148,4535,0,4,100,,,,0,4,4,4,4,4,4,4,4,4,4,4,4,4,4,100,,,,,,,,,,,,,,,,,,,,,,,,,,,,,,,,,,,,,,,,,,,,,,,,,,,,,,,,,,,,,,,,,,,,,,,,,,,,,,,,,,,,,,,,,,,,,,,,,,,,,,,,,,,,,,,,,,,,,,,,,,,,,,,,,,,,,,,,,,,,,,,
1732009121,1732009121,35,0,4352.179688,4351.666504,4385.641113,4366.538574,4416.538574,4360.128418,4346.153809,4360.256348,4337.307617,4326.025879,4511.025879,4479.871582,4457.436035,4535,0,4,100,,,,0,4,4,4,4,4,4,4,4,4,4,4,4,4,4,100,,,,,,,,,,,,,,,,,,,,,,,,,,,,,,,,,,,,,,,,,,,,,,,,,,,,,,,,,,,,,,,,,,,,,,,,,,,,,,,,,,,,,,,,,,,,,,,,,,,,,,,,,,,,,,,,,,,,,,,,,,,,,,,,,,,,,,,,,,,,,,,
1732009121,1732009121,36,0,4357.436035,4353.205078,4384.230957,4367.05127,4416.666504,4358.333496,4342.692383,4363.717773,4336.538574,4328.717773,4512.94873,4478.589844,4449.871582,4532.307617,0,4,100,,,,0,4,4,4,4,4,4,4,4,4,4,4,4,4,4,100,,,,,,,,,,,,,,,,,,,,,,,,,,,,,,,,,,,,,,,,,,,,,,,,,,,,,,,,,,,,,,,,,,,,,,,,,,,,,,,,,,,,,,,,,,,,,,,,,,,,,,,,,,,,,,,,,,,,,,,,,,,,,,,,,,,,,,,,,,,,,,,
1732009121,1732009121,37,0,4357.179688,4350.384766,4379.358887,4365.769043,4412.05127,4351.922852,4339.358887,4361.282227,4329.230957,4327.563965,4507.179688,4474.871582,4450.256348,4526.025879,0,4,100,,,,0,4,4,4,4,4,4,4,4,4,4,4,4,4,4,100,,,,,,,,,,,,,,,,,,,,,,,,,,,,,1,0,0,,,,,,,,,,,,,,,,,,,,,,,,,,,,,,,,,,,,,0,0,64,0.570188,1,0,11.443001,2.381124,0.882631,0.292087,0.122308,12.703682,1.750503,0.883627,0.321537,0.176602,2.304148,0.930491,0.305752,0.163784,0.075004,3.555488,0.991228,0.466931,0.155912,0.107939,0.986696,0.421582,0.496225,0.327957,0.245294,0.358657,0.301792,0.095674,0.093649,0.167168,0.337752,0.320928,0.232933,0.101643,0.092521,1.090152,0.43619,0.469094,0.15964,0.104576,1.0976,0.824894,0.64023,0.202751,0.138297,2.049718,2.269114,1.2051,0.445685,0.222664,3.746448,1.605903,0.620315,0.596587,0.117247,3.132652,0.888954,0.569148,0.29998,0.125261,10.745648,1.301075,1.257832,0.654928,0.14064,7.424242,1.409162,0.593957,0.33456,0.102987
1732009122,1732009122,38,0,4351.153809,4343.717773,4382.820313,4366.666504,4408.077148,4351.666504,4343.717773,4360.769043,4330,4324.871582,4501.666504,4476.666504,4447.436035,4522.94873,0,4,100,,,,0,4,4,4,4,4,4,4,4,4,4,4,4,4,4,100,,,,,,,,,,,,,,,,,,,,,,,,,,,,,,,,,,,,,,,,,,,,,,,,,,,,,,,,,,,,,,,,,,,,,,,,,,,,,,,,,,,,,,,,,,,,,,,,,,,,,,,,,,,,,,,,,,,,,,,,,,,,,,,,,,,,,,,,,,,,,,,
1732009122,1732009122,39,0,4355.128418,4346.666504,4388.717773,4371.282227,4410.897461,4357.05127,4346.153809,4365.512695,4335.128418,4329.230957,4510.384766,4483.205078,4448.589844,4529.102539,0,4,100,,,,0,4,4,4,4,4,4,4,4,4,4,4,4,4,4,100,,,,,,,,,,,,,,,,,,,,,,,,,,,,,,,,,,,,,,,,,,,,,,,,,,,,,,,,,,,,,,,,,,,,,,,,,,,,,,,,,,,,,,,,,,,,,,,,,,,,,,,,,,,,,,,,,,,,,,,,,,,,,,,,,,,,,,,,,,,,,,,
1732009122,1732009122,40,0,4364.102539,4354.487305,4386.410156,4373.077148,4416.153809,4358.589844,4339.230957,4364.230957,4333.589844,4334.743652,4520.512695,4484.358887,4465.512695,4537.179688,0,4,100,,,,0,4,4,4,4,4,4,4,4,4,4,4,4,4,4,100,,,,,,,,,,,,,,,,,,,,,,,,,,,,,,,,,,,,,,,,,,,,,,,,,,,,,,,,,,,,,,,,,,,,,,,,,,,,,,,,,,,,,,,,,,,,,,,,,,,,,,,,,,,,,,,,,,,,,,,,,,,,,,,,,,,,,,,,,,,,,,,
1732009122,1732009122,41,0,4359.358887,4347.05127,4380.256348,4363.846191,4415.384766,4356.538574,4336.794922,4359.487305,4331.666504,4334.230957,4516.666504,4479.230957,4472.436035,4536.538574,0,4,100,,,,0,4,4,4,4,4,4,4,4,4,4,4,4,4,4,100,,,,,,,,,,,,,,,,,,,,,,,,,,,,,,,,,,,,,,,,,,,,,,,,,,,,,,,,,,,,,,,,,,,,0,0,64,0.570188,1,0,,,,,,,,,,,,,,,,,,,,,,,,,,,,,,,,,,,,,,,,,,,,,,,,,,,,,,,,,,,,,,,,,,,,,,
1732009122,1732009122,42,0,4348.846191,4329.102539,4377.05127,4355.384766,4405.384766,4354.615234,4341.794922,4361.153809,4333.717773,4332.436035,4513.461426,4474.615234,4462.05127,4530.641113,0,4,100,,,,0,4,4,4,4,4,4,4,4,4,4,4,4,4,4,100,,,,,,,,,,,,,,,,,,,,,,,,,,,,,,,,,,,,,,,,,,,,,,,,,,,,,,,,,,,,,,,,,,,,,,,,,,,,,,,,,,,,,,,,,,,,,,,,,,,,,,,,,,,,,,,,,,,,,,,,,,,,,,,,,,,,,,,,,,,,,,,
1732009122,1732009122,43,0,4352.179688,4327.692383,4377.94873,4358.717773,4398.717773,4356.794922,4343.846191,4363.589844,4337.692383,4336.538574,4519.871582,4477.820313,4467.307617,4530.128418,0,4,100,,,,0,4,4,4,4,4,4,4,4,4,4,4,4,4,4,100,,,,,,,,,,,,,,,,,,,,,,,,,,,,,,,,,,,,,,,,,,,,,,,,,,,,,,,,,,,,,,,,,,,,,,,,,,,,,,,,,,,,,,,,,,,,,,,,,,,,,,,,,,,,,,,,,,,,,,,,,,,,,,,,,,,,,,,,,,,,,,,
1732009122,1732009122,44,0,4361.410156,4338.846191,4382.563965,4364.871582,4400.384766,4357.05127,4342.563965,4363.333496,4341.282227,4341.282227,4522.820313,4486.666504,4484.102539,4533.333496,0,4,100,,,,0,4,4,4,4,4,4,4,4,4,4,4,4,4,4,100,,,,,,,,,,,,,,,,,,,,,,,,,,,,,,,,,,,,,,,,,,,,,,,,,,,,,,,,,,,,,,,,,,,,,,,,,,,,,,,,,,,,,,,,,,,,,,,,,,,,,,,,,,,,,,,,,,,,,,,,,,,,,,,,,,,,,,,,,,,,,,,
1732009122,1732009122,45,0,4364.871582,4340.384766,4387.179688,4366.794922,4403.717773,4353.974121,4343.205078,4364.487305,4343.846191,4342.179688,4526.794922,4489.230957,4487.94873,4536.153809,0,4,100,,,,0,4,4,4,4,4,4,4,4,4,4,4,4,4,4,100,,,,,,,,,,,,,,,,,,,,,,,,,,,,,,,,,,,,,,,,,,,,,,,,,,,,,,,,,,,,,,,,,,,,0,0,64,0.570188,1,0,,,,,,,,,,,,,,,,,,,,,,,,,,,,,,,,,,,,,,,,,,,,,,,,,,,,,,,,,,,,,,,,,,,,,,
1732009122,1732009122,46,0,4364.743652,4337.820313,4388.205078,4367.436035,4410.512695,4358.333496,4347.05127,4365.128418,4345.769043,4344.230957,4533.846191,4490.641113,4485.384766,4539.230957,0,4,100,,,,0,4,4,4,4,4,4,4,4,4,4,4,4,4,4,100,,,,,,,,,,,,,,,,,,,,,,,,,,,,,,,,,,,,,,,,,,,,,,,,,,,,,,,,,,,,,,,,,,,,,,,,,,,,,,,,,,,,,,,,,,,,,,,,,,,,,,,,,,,,,,,,,,,,,,,,,,,,,,,,,,,,,,,,,,,,,,,
1732009122,1732009122,47,0,4359.615234,4338.077148,4383.077148,4364.358887,4413.846191,4363.974121,4350.384766,4362.563965,4343.974121,4345,4527.94873,4491.922852,4478.717773,4534.358887,0,4,100,,,,0,4,4,4,4,4,4,4,4,4,4,4,4,4,4,100,,,,,,,,,,,,,,,,,,,,,,,,,,,,,,,,,,,,,,,,,,,,,,,,,,,,,,,,,,,,,,,,,,,,,,,,,,,,,,,,,,,,,,,,,,,,,,,,,,,,,,,,,,,,,,,,,,,,,,,,,,,,,,,,,,,,,,,,,,,,,,,
1732009122,1732009122,48,0,4354.871582,4337.563965,4377.05127,4360.128418,4405.384766,4360.256348,4350.384766,4362.692383,4339.743652,4342.179688,4519.871582,4485.256348,4472.436035,4527.94873,0,4,100,,,,0,4,4,4,4,4,4,4,4,4,4,4,4,4,4,100,,,,,,,,,,,,,,,,,,,,,,,,,,,,,,,,,,,,,,,,,,,,,,,,,,,,,,,,,,,,,,,,,,,,,,,,,,,,,,,,,,,,,,,,,,,,,,,,,,,,,,,,,,,,,,,,,,,,,,,,,,,,,,,,,,,,,,,,,,,,,,,
1732009122,1732009122,49,0,4354.102539,4337.563965,4376.025879,4360.641113,4399.871582,4355.512695,4348.333496,4366.538574,4337.436035,4344.487305,4524.487305,4479.871582,4472.05127,4528.077148,0,4,100,,,,0,4,4,4,4,4,4,4,4,4,4,4,4,4,4,100,,,,,,,,,,,,,,,,,,,,,,,,,,,,,,,,,,,,,,,,,,,,,,,,,,,,,,,,,,,,,,,,,,,,0,0,64,0.570188,1,0,,,,,,,,,,,,,,,,,,,,,,,,,,,,,,,,,,,,,,,,,,,,,,,,,,,,,,,,,,,,,,,,,,,,,,
1732009122,1732009122,50,0,4351.410156,4335.128418,4373.846191,4358.846191,4403.333496,4352.94873,4345.384766,4363.589844,4336.410156,4344.871582,4520.512695,4476.282227,4462.563965,4522.307617,0,4,100,,,,0,4,4,4,4,4,4,4,4,4,4,4,4,4,4,100,,,,,,,,,,,,,,,,,,,,,,,,,,,,,,,,,,,,,,,,,,,,,,,,,,,,,,,,,,,,,,,,,,,,,,,,,,,,,,,,,,,,,,,,,,,,,,,,,,,,,,,,,,,,,,,,,,,,,,,,,,,,,,,,,,,,,,,,,,,,,,,
1732009122,1732009122,51,0,4346.025879,4328.333496,4366.282227,4352.563965,4402.563965,4348.589844,4342.94873,4357.307617,4332.94873,4332.436035,4505,4468.717773,4452.307617,4510.641113,0,4,100,,,,0,4,4,4,4,4,4,4,4,4,4,4,4,4,4,100,,,,,,,,,,,,,,,,,,,,,,,,,,,,,,,,,,,,,,,,,,,,,,,,,,,,,,,,,,,,,,,,,,,,,,,,,,,,,,,,,,,,,,,,,,,,,,,,,,,,,,,,,,,,,,,,,,,,,,,,,,,,,,,,,,,,,,,,,,,,,,,
1732009122,1732009122,52,0,4345.384766,4328.205078,4362.307617,4350.769043,4399.871582,4350.128418,4347.820313,4356.538574,4328.846191,4321.794922,4503.461426,4464.358887,4452.692383,4507.05127,0,4,100,,,,0,4,4,4,4,4,4,4,4,4,4,4,4,4,4,100,,,,,,,,,,,,,,,,,,,,,,,,,,,,,,,,,,,,,,,,,,,,,,,,,,,,,,,,,,,,,,,,,,,,,,,,,,,,,,,,,,,,,,,,,,,,,,,,,,,,,,,,,,,,,,,,,,,,,,,,,,,,,,,,,,,,,,,,,,,,,,,
1732009122,1732009122,53,0,4349.871582,4337.05127,4368.205078,4357.179688,4401.410156,4357.820313,4356.922852,4361.538574,4333.717773,4328.461426,4511.666504,4474.743652,4457.692383,4514.102539,0,4,100,,,,0,4,4,4,4,4,4,4,4,4,4,4,4,4,4,100,,,,,,,,,,,,,,,,,,,,,,,,,,,,,1,0,0,,,,,,,,,,,,,,,,,,,,,,,,,,,,,,,,,,,,,0,0,64,0.51737,1,0,14.204993,2.658726,0.965179,0.309296,0.118593,14.926474,1.985809,0.94316,0.338677,0.170921,2.668853,0.864413,0.345127,0.200269,0.067698,4.073814,1.040048,0.514423,0.168226,0.100435,0.950289,0.407783,0.443636,0.25611,0.229527,0.318323,0.252165,0.10483,0.090782,0.142142,0.23102,0.332501,0.219038,0.101249,0.08907,0.867774,0.381113,0.462677,0.195181,0.096648,0.893541,0.788044,0.611312,0.255251,0.121825,1.938787,2.072545,1.261925,0.457916,0.210817,4.104689,1.565156,0.690333,0.668962,0.107506,3.753666,0.963406,0.596274,0.371745,0.112746,11.64705,1.463555,1.357942,0.711903,0.163951,9.693618,1.518942,0.73251,0.369031,0.098524
1732009122,1732009122,54,0,4352.179688,4341.282227,4373.077148,4362.05127,4401.025879,4362.05127,4357.820313,4370.641113,4344.102539,4337.563965,4516.922852,4487.179688,4463.077148,4521.282227,0,4,100,,,,0,4,4,4,4,4,4,4,4,4,4,4,4,4,4,100,,,,,,,,,,,,,,,,,,,,,,,,,,,,,,,,,,,,,,,,,,,,,,,,,,,,,,,,,,,,,,,,,,,,,,,,,,,,,,,,,,,,,,,,,,,,,,,,,,,,,,,,,,,,,,,,,,,,,,,,,,,,,,,,,,,,,,,,,,,,,,,
1732009122,1732009122,55,0,4347.307617,4335.769043,4366.538574,4357.05127,4399.358887,4360.641113,4354.358887,4373.077148,4347.179688,4333.846191,4516.538574,4482.307617,4461.666504,4516.538574,0,4,100,,,,0,4,4,4,4,4,4,4,4,4,4,4,4,4,4,100,,,,,,,,,,,,,,,,,,,,,,,,,,,,,,,,,,,,,,,,,,,,,,,,,,,,,,,,,,,,,,,,,,,,,,,,,,,,,,,,,,,,,,,,,,,,,,,,,,,,,,,,,,,,,,,,,,,,,,,,,,,,,,,,,,,,,,,,,,,,,,,
1732009122,1732009122,56,0,4339.615234,4329.743652,4362.94873,4353.717773,4403.717773,4356.410156,4357.692383,4364.487305,4343.717773,4332.307617,4510.256348,4472.563965,4447.820313,4506.538574,0,4,100,,,,0,4,4,4,4,4,4,4,4,4,4,4,4,4,4,100,,,,,,,,,,,,,,,,,,,,,,,,,,,,,,,,,,,,,,,,,,,,,,,,,,,,,,,,,,,,,,,,,,,,,,,,,,,,,,,,,,,,,,,,,,,,,,,,,,,,,,,,,,,,,,,,,,,,,,,,,,,,,,,,,,,,,,,,,,,,,,,
1732009122,1732009122,57,0,4341.922852,4329.358887,4368.846191,4355.641113,4405.384766,4356.282227,4362.563965,4360.512695,4343.333496,4340.641113,4510.256348,4475.128418,4440.769043,4508.461426,0,4,100,,,,0,4,4,4,4,4,4,4,4,4,4,4,4,4,4,100,,,,,,,,,,,,,,,,,,,,,,,,,,,,,,,,,,,,,,,,,,,,,,,,,,,,,,,,,,,,,,,,,,,,0,0,64,0.51737,1,0,,,,,,,,,,,,,,,,,,,,,,,,,,,,,,,,,,,,,,,,,,,,,,,,,,,,,,,,,,,,,,,,,,,,,,
1732009122,1732009122,58,0,4350,4331.794922,4370.128418,4353.974121,4401.538574,4358.974121,4359.358887,4365.641113,4344.743652,4338.205078,4517.05127,4481.282227,4444.615234,4515.769043,0,4,100,,,,0,4,4,4,4,4,4,4,4,4,4,4,4,4,4,100,,,,,,,,,,,,,,,,,,,,,,,,,,,,,,,,,,,,,,,,,,,,,,,,,,,,,,,,,,,,,,,,,,,,,,,,,,,,,,,,,,,,,,,,,,,,,,,,,,,,,,,,,,,,,,,,,,,,,,,,,,,,,,,,,,,,,,,,,,,,,,,
1732009122,1732009122,59,0,4348.461426,4330.769043,4366.794922,4352.05127,4403.589844,4357.820313,4355.641113,4366.282227,4345.256348,4329.615234,4513.077148,4478.077148,4439.743652,4512.692383,0,4,100,,,,0,4,4,4,4,4,4,4,4,4,4,4,4,4,4,100,,,,,,,,,,,,,,,,,,,,,,,,,,,,,,,,,,,,,,,,,,,,,,,,,,,,,,,,,,,,,,,,,,,,,,,,,,,,,,,,,,,,,,,,,,,,,,,,,,,,,,,,,,,,,,,,,,,,,,,,,,,,,,,,,,,,,,,,,,,,,,,
1732009122,1732009122,60,0,4343.077148,4329.230957,4367.307617,4354.743652,4406.794922,4357.05127,4356.538574,4359.871582,4344.743652,4332.05127,4509.102539,4472.820313,4432.05127,4505.384766,0,4,100,,,,0,4,4,4,4,4,4,4,4,4,4,4,4,4,4,100,,,,,,,,,,,,,,,,,,,,,,,,,,,,,,,,,,,,,,,,,,,,,,,,,,,,,,,,,,,,,,,,,,,,,,,,,,,,,,,,,,,,,,,,,,,,,,,,,,,,,,,,,,,,,,,,,,,,,,,,,,,,,,,,,,,,,,,,,,,,,,,
1732009122,1732009122,61,0,4345.128418,4328.333496,4366.282227,4356.666504,4404.487305,4358.205078,4355.897461,4356.922852,4343.077148,4337.05127,4516.538574,4474.230957,4432.820313,4505.128418,0,4,100,,,,0,4,4,4,4,4,4,4,4,4,4,4,4,4,4,100,,,,,,,,,,,,,,,,,,,,,,,,,,,,,,,,,,,,,,,,,,,,,,,,,,,,,,,,,,,,,,,,,,,,0,0,64,0.51737,1,0,,,,,,,,,,,,,,,,,,,,,,,,,,,,,,,,,,,,,,,,,,,,,,,,,,,,,,,,,,,,,,,,,,,,,,
1732009122,1732009122,62,0,4347.05127,4324.615234,4361.410156,4355.384766,4405.512695,4355.769043,4351.153809,4359.487305,4339.230957,4331.410156,4518.205078,4473.077148,4432.692383,4505.897461,0,4,100,,,,0,4,4,4,4,4,4,4,4,4,4,4,4,4,4,100,,,,,,,,,,,,,,,,,,,,,,,,,,,,,,,,,,,,,,,,,,,,,,,,,,,,,,,,,,,,,,,,,,,,,,,,,,,,,,,,,,,,,,,,,,,,,,,,,,,,,,,,,,,,,,,,,,,,,,,,,,,,,,,,,,,,,,,,,,,,,,,
1732009122,1732009122,63,0,4341.666504,4322.307617,4358.077148,4354.615234,4406.794922,4352.436035,4349.230957,4358.717773,4335.769043,4322.307617,4506.922852,4463.846191,4426.666504,4497.94873,0,4,100,,,,0,4,4,4,4,4,4,4,4,4,4,4,4,4,4,100,,,,,,,,,,,,,,,,,,,,,,,,,,,,,,,,,,,,,,,,,,,,,,,,,,,,,,,,,,,,,,,,,,,,,,,,,,,,,,,,,,,,,,,,,,,,,,,,,,,,,,,,,,,,,,,,,,,,,,,,,,,,,,,,,,,,,,,,,,,,,,,
1732009122,1732009122,64,0,4337.563965,4321.282227,4354.487305,4351.538574,4398.461426,4351.794922,4351.025879,4351.025879,4330.769043,4318.846191,4496.922852,4454.743652,4418.333496,4488.333496,2433,4,100,,,,0,4,4,4,4,4,4,4,4,4,4,4,4,4,4,100,,,,,,,,,,,,,,,,,,,,,,,,,,,,,,,,,,,,,,,,,,,,,,,,,,,,,,,,,,,,,,,,,,,,,,,,,,,,,,,,,,,,,,,,,,,,,,,,,,,,,,,,,,,,,,,,,,,,,,,,,,,,,,,,,,,,,,,,,,,,,,,
1732009122,1732009122,65,0,4337.94873,4318.974121,4353.333496,4349.871582,4399.743652,4350,4350.769043,4347.179688,4323.846191,4321.538574,4497.179688,4453.589844,4412.05127,4487.563965,2294,4,100,,,,0,4,4,4,4,4,4,4,4,4,4,4,4,4,4,100,,,,,,,,,,,,,,,,,,,,,,,,,,,,,,,,,,,,,,,,,,,,,,,,,,,,,,,,,,,,,,,,,,,,0,0,64,0.51737,1,0,,,,,,,,,,,,,,,,,,,,,,,,,,,,,,,,,,,,,,,,,,,,,,,,,,,,,,,,,,,,,,,,,,,,,,
1732009122,1732009122,66,0,4340.897461,4319.230957,4355.512695,4352.436035,4410.384766,4351.666504,4349.871582,4349.487305,4324.615234,4323.589844,4501.922852,4457.563965,4408.205078,4492.94873,2127,4,100,,,,0,4,4,4,4,4,4,4,4,4,4,4,4,4,4,100,,,,,,,,,,,,,,,,,,,,,,,,,,,,,,,,,,,,,,,,,,,,,,,,,,,,,,,,,,,,,,,,,,,,,,,,,,,,,,,,,,,,,,,,,,,,,,,,,,,,,,,,,,,,,,,,,,,,,,,,,,,,,,,,,,,,,,,,,,,,,,,
1732009122,1732009122,67,0,4340.641113,4318.333496,4351.410156,4352.94873,4407.563965,4354.487305,4352.692383,4348.077148,4331.025879,4318.077148,4498.846191,4456.922852,4405.769043,4489.871582,2289,4,100,,,,0,4,4,4,4,4,4,4,4,4,4,4,4,4,4,100,,,,,,,,,,,,,,,,,,,,,,,,,,,,,,,,,,,,,,,,,,,,,,,,,,,,,,,,,,,,,,,,,,,,,,,,,,,,,,,,,,,,,,,,,,,,,,,,,,,,,,,,,,,,,,,,,,,,,,,,,,,,,,,,,,,,,,,,,,,,,,,
1732009122,1732009122,68,0,4335.897461,4317.307617,4346.410156,4350.384766,4405.512695,4353.077148,4354.743652,4346.794922,4330.384766,4319.358887,4497.179688,4457.436035,4408.846191,4484.487305,2454,4,100,,,,0,4,4,4,4,4,4,4,4,4,4,4,4,4,4,100,,,,,,,,,,,,,,,,,,,,,,,,,,,,,,,,,,,,,,,,,,,,,,,,,,,,,,,,,,,,,,,,,,,,,,,,,,,,,,,,,,,,,,,,,,,,,,,,,,,,,,,,,,,,,,,,,,,,,,,,,,,,,,,,,,,,,,,,,,,,,,,
1732009122,1732009122,69,0,4337.307617,4322.179688,4349.487305,4351.282227,4414.102539,4352.307617,4352.307617,4352.179688,4328.461426,4327.179688,4508.333496,4464.743652,4416.025879,4490,2376,4,100,,,,0,4,4,4,4,4,4,4,4,4,4,4,4,4,4,100,,,,,,,,,,,,,,,,,,,,,,,,,,,,,1,0,0,,,,,,,,,,,,,,,,,,,,,,,,,,,,,,,,,,,,,0,0,64,0.136409,1,0,15.368305,2.721598,1.001517,0.321221,0.10932,15.407743,2.06307,0.914135,0.337655,0.158533,2.825378,0.779146,0.405385,0.240678,0.061609,4.212751,1.05212,0.573765,0.178005,0.091745,0.888327,0.423954,0.375786,0.198167,0.211269,0.315357,0.206108,0.114622,0.101654,0.120832,0.194328,0.332296,0.206172,0.108635,0.087032,0.762467,0.366103,0.427625,0.247871,0.093566,0.776906,0.702625,0.542424,0.324192,0.105502,1.848498,1.786975,1.31591,0.494884,0.197722,4.260053,1.575499,0.786609,0.74433,0.106462,4.134524,1.09403,0.66309,0.463023,0.101153,11.557524,1.698523,1.614951,0.768119,0.207555,11.171717,1.65905,0.907058,0.409247,0.094978
1732009122,1732009122,70,0,4345.641113,4327.307617,4351.794922,4354.102539,4416.025879,4355.256348,4349.102539,4357.179688,4333.077148,4327.307617,4510.769043,4467.820313,4414.230957,4493.717773,1818,4,100,,,,0,4,4,4,4,4,4,4,4,4,4,4,4,4,4,100,,,,,,,,,,,,,,,,,,,,,,,,,,,,,,,,,,,,,,,,,,,,,,,,,,,,,,,,,,,,,,,,,,,,,,,,,,,,,,,,,,,,,,,,,,,,,,,,,,,,,,,,,,,,,,,,,,,,,,,,,,,,,,,,,,,,,,,,,,,,,,,
1732009122,1732009122,71,0,4345.641113,4323.974121,4347.436035,4351.282227,4410.384766,4355.384766,4348.205078,4355,4332.94873,4324.358887,4505.128418,4463.717773,4408.589844,4490.769043,1980,4,100,,,,0,4,4,4,4,4,4,4,4,4,4,4,4,4,4,100,,,,,,,,,,,,,,,,,,,,,,,,,,,,,,,,,,,,,,,,,,,,,,,,,,,,,,,,,,,,,,,,,,,,,,,,,,,,,,,,,,,,,,,,,,,,,,,,,,,,,,,,,,,,,,,,,,,,,,,,,,,,,,,,,,,,,,,,,,,,,,,
1732009122,1732009122,72,0,4339.871582,4322.179688,4345.128418,4349.102539,4405.897461,4350.256348,4347.563965,4352.307617,4327.436035,4321.153809,4507.05127,4461.282227,4409.615234,4488.461426,2015,4,100,,,,0,4,4,4,4,4,4,4,4,4,4,4,4,4,4,100,,,,,,,,,,,,,,,,,,,,,,,,,,,,,,,,,,,,,,,,,,,,,,,,,,,,,,,,,,,,,,,,,,,,,,,,,,,,,,,,,,,,,,,,,,,,,,,,,,,,,,,,,,,,,,,,,,,,,,,,,,,,,,,,,,,,,,,,,,,,,,,
1732009122,1732009122,73,0,4344.102539,4321.922852,4350,4352.05127,4402.563965,4350,4347.820313,4352.820313,4329.230957,4319.871582,4506.922852,4464.230957,4410.641113,4485.897461,2469,4,100,,,,0,4,4,4,4,4,4,4,4,4,4,4,4,4,4,100,,,,,,,,,,,,,,,,,,,,,,,,,,,,,,,,,,,,,,,,,,,,,,,,,,,,,,,,,,,,,,,,,,,,0,0,64,0.136409,1,0,,,,,,,,,,,,,,,,,,,,,,,,,,,,,,,,,,,,,,,,,,,,,,,,,,,,,,,,,,,,,,,,,,,,,,
1732009122,1732009122,74,0,4351.282227,4315.897461,4357.436035,4355.384766,4407.179688,4355.641113,4352.692383,4355.769043,4336.410156,4326.025879,4508.461426,4470.897461,4412.563965,4487.563965,2555,4,100,,,,0,4,4,4,4,4,4,4,4,4,4,4,4,4,4,100,,,,,,,,,,,,,,,,,,,,,,,,,,,,,,,,,,,,,,,,,,,,,,,,,,,,,,,,,,,,,,,,,,,,,,,,,,,,,,,,,,,,,,,,,,,,,,,,,,,,,,,,,,,,,,,,,,,,,,,,,,,,,,,,,,,,,,,,,,,,,,,
1732009122,1732009122,75,0,4351.922852,4318.717773,4361.025879,4362.05127,4415.641113,4359.871582,4356.666504,4358.717773,4337.820313,4330,4511.794922,4472.436035,4414.871582,4495.769043,2538,4,100,,,,0,4,4,4,4,4,4,4,4,4,4,4,4,4,4,100,,,,,,,,,,,,,,,,,,,,,,,,,,,,,,,,,,,,,,,,,,,,,,,,,,,,,,,,,,,,,,,,,,,,,,,,,,,,,,,,,,,,,,,,,,,,,,,,,,,,,,,,,,,,,,,,,,,,,,,,,,,,,,,,,,,,,,,,,,,,,,,
1732009122,1732009122,76,0,4352.179688,4331.666504,4358.846191,4366.153809,4414.358887,4357.307617,4349.102539,4355.769043,4330.641113,4323.846191,4501.153809,4463.077148,4407.563965,4494.102539,2987,4,100,,,,0,4,4,4,4,4,4,4,4,4,4,4,4,4,4,100,,,,,,,,,,,,,,,,,,,,,,,,,,,,,,,,,,,,,,,,,,,,,,,,,,,,,,,,,,,,,,,,,,,,,,,,,,,,,,,,,,,,,,,,,,,,,,,,,,,,,,,,,,,,,,,,,,,,,,,,,,,,,,,,,,,,,,,,,,,,,,,
1732009122,1732009122,77,0,4354.871582,4335.128418,4355.897461,4362.94873,4411.282227,4355.256348,4341.794922,4353.589844,4327.436035,4324.358887,4490.128418,4457.179688,4401.025879,4483.974121,3134,4,100,,,,0,4,4,4,4,4,4,4,4,4,4,4,4,4,4,100,,,,,,,,,,,,,,,,,,,,,,,,,,,,,,,,,,,,,,,,,,,,,,,,,,,,,,,,,,,,,,,,,,,,0,0,64,0.136409,1,0,,,,,,,,,,,,,,,,,,,,,,,,,,,,,,,,,,,,,,,,,,,,,,,,,,,,,,,,,,,,,,,,,,,,,,
1732009122,1732009122,78,0,4353.589844,4330,4355.384766,4362.692383,4413.589844,4358.077148,4344.743652,4355.128418,4329.102539,4327.436035,4497.820313,4460.641113,4405.641113,4483.461426,2555,4,100,,,,0,4,4,4,4,4,4,4,4,4,4,4,4,4,4,100,,,,,,,,,,,,,,,,,,,,,,,,,,,,,,,,,,,,,,,,,,,,,,,,,,,,,,,,,,,,,,,,,,,,,,,,,,,,,,,,,,,,,,,,,,,,,,,,,,,,,,,,,,,,,,,,,,,,,,,,,,,,,,,,,,,,,,,,,,,,,,,
1732009122,1732009122,79,0,4352.692383,4327.94873,4353.717773,4364.102539,4415.897461,4357.179688,4344.102539,4352.692383,4326.794922,4317.307617,4501.282227,4461.538574,4404.871582,4485.769043,2538,4,100,,,,0,4,4,4,4,4,4,4,4,4,4,4,4,4,4,100,,,,,,,,,,,,,,,,,,,,,,,,,,,,,,,,,,,,,,,,,,,,,,,,,,,,,,,,,,,,,,,,,,,,,,,,,,,,,,,,,,,,,,,,,,,,,,,,,,,,,,,,,,,,,,,,,,,,,,,,,,,,,,,,,,,,,,,,,,,,,,,
1732009122,1732009122,80,0,4354.615234,4325.769043,4353.717773,4360.512695,4415.769043,4356.025879,4339.358887,4348.846191,4322.179688,4311.153809,4493.717773,4462.692383,4396.153809,4482.179688,2987,4,100,,,,0,4,4,4,4,4,4,4,4,4,4,4,4,4,4,100,,,,,,,,,,,,,,,,,,,,,,,,,,,,,,,,,,,,,,,,,,,,,,,,,,,,,,,,,,,,,,,,,,,,,,,,,,,,,,,,,,,,,,,,,,,,,,,,,,,,,,,,,,,,,,,,,,,,,,,,,,,,,,,,,,,,,,,,,,,,,,,
1732009122,1732009122,81,0,4354.743652,4323.461426,4354.871582,4360,4413.846191,4356.666504,4341.282227,4348.077148,4323.077148,4318.717773,4494.358887,4465.641113,4395.128418,4481.410156,3134,4,100,,,,0,4,4,4,4,4,4,4,4,4,4,4,4,4,4,100,,,,,,,,,,,,,,,,,,,,,,,,,,,,,,,,,,,,,,,,,,,,,,,,,,,,,,,,,,,,,,,,,,,,0,0,64,0.136409,1,0,,,,,,,,,,,,,,,,,,,,,,,,,,,,,,,,,,,,,,,,,,,,,,,,,,,,,,,,,,,,,,,,,,,,,,
1732009122,1732009122,82,0,4353.077148,4327.179688,4355.256348,4363.589844,4415.641113,4355.641113,4345.256348,4347.820313,4327.436035,4321.282227,4498.974121,4462.563965,4397.307617,4481.025879,2555,4,100,,,,0,4,4,4,4,4,4,4,4,4,4,4,4,4,4,100,,,,,,,,,,,,,,,,,,,,,,,,,,,,,,,,,,,,,,,,,,,,,,,,,,,,,,,,,,,,,,,,,,,,,,,,,,,,,,,,,,,,,,,,,,,,,,,,,,,,,,,,,,,,,,,,,,,,,,,,,,,,,,,,,,,,,,,,,,,,,,,
1732009122,1732009122,83,0,4350.769043,4328.846191,4354.743652,4362.05127,4417.94873,4356.282227,4342.820313,4347.820313,4329.102539,4318.461426,4497.563965,4457.820313,4393.461426,4473.846191,2538,4,100,,,,0,4,4,4,4,4,4,4,4,4,4,4,4,4,4,100,,,,,,,,,,,,,,,,,,,,,,,,,,,,,,,,,,,,,,,,,,,,,,,,,,,,,,,,,,,,,,,,,,,,,,,,,,,,,,,,,,,,,,,,,,,,,,,,,,,,,,,,,,,,,,,,,,,,,,,,,,,,,,,,,,,,,,,,,,,,,,,
1732009122,1732009122,84,0,4350.897461,4326.922852,4355.256348,4360.512695,4415.384766,4358.717773,4340.769043,4350.128418,4327.692383,4322.436035,4495.512695,4457.820313,4391.538574,4474.358887,2987,4,100,,,,0,4,4,4,4,4,4,4,4,4,4,4,4,4,4,100,,,,,,,,,,,,,,,,,,,,,,,,,,,,,,,,,,,,,,,,,,,,,,,,,,,,,,,,,,,,,,,,,,,,,,,,,,,,,,,,,,,,,,,,,,,,,,,,,,,,,,,,,,,,,,,,,,,,,,,,,,,,,,,,,,,,,,,,,,,,,,,
1732009122,1732009122,85,0,4352.692383,4326.666504,4357.563965,4361.410156,4412.307617,4358.589844,4343.846191,4351.282227,4324.230957,4325.384766,4496.025879,4459.871582,4390.512695,4480.512695,3134,4,100,,,,0,4,4,4,4,4,4,4,4,4,4,4,4,4,4,100,1,100,4,4,4,4,4,4,4,4,4,4,4,4,4,4,,,,,,,,,,,,,1,0,0,,,,,,,,,,,,,,,,,,,,,,,,,,,,,,,,,,,,,0,0,64,0.172743,1,0,14.603781,2.563772,0.993222,0.324214,0.09783,14.149032,1.968577,0.812465,0.317192,0.145419,2.752508,0.709816,0.472116,0.274373,0.057852,3.959842,1.020135,0.630714,0.181293,0.083585,0.836886,0.454913,0.306026,0.167283,0.19128,0.327317,0.168298,0.124677,0.123021,0.106629,0.22862,0.319071,0.200293,0.120425,0.088159,0.779208,0.3955,0.373396,0.303001,0.094861,0.741089,0.592699,0.455126,0.392422,0.093907,1.82765,1.485893,1.348611,0.54771,0.183829,4.100793,1.603665,0.876918,0.797269,0.111771,4.122179,1.245915,0.748233,0.550507,0.091676,10.466434,2.007722,1.952737,0.803575,0.257417,11.300675,1.804388,1.07251,0.443576,0.093322
1732009122,1732009122,86,0,4351.025879,4321.538574,4351.794922,4356.922852,4409.743652,4356.922852,4346.666504,4350.256348,4323.077148,4314.230957,4490.641113,4459.871582,4380.641113,4474.102539,2555,4,100,,,,0,4,4,4,4,4,4,4,4,4,4,4,4,4,4,100,,,,,,,,,,,,,,,,,,,,,,,,,,,,,,,,,,,,,,,,,,,,,,,,,,,,,,,,,,,,,,,,,,,,,,,,,,,,,,,,,,,,,,,,,,,,,,,,,,,,,,,,,,,,,,,,,,,,,,,,,,,,,,,,,,,,,,,,,,,,,,,
1732009122,1732009122,87,0,4350,4318.846191,4346.282227,4355.897461,4410.256348,4362.436035,4346.794922,4352.692383,4324.871582,4307.94873,4489.487305,4460.128418,4379.615234,4471.153809,2538,4,100,,,,0,4,4,4,4,4,4,4,4,4,4,4,4,4,4,100,,,,,,,,,,,,,,,,,,,,,,,,,,,,,,,,,,,,,,,,,,,,,,,,,,,,,,,,,,,,,,,,,,,,,,,,,,,,,,,,,,,,,,,,,,,,,,,,,,,,,,,,,,,,,,,,,,,,,,,,,,,,,,,,,,,,,,,,,,,,,,,
1732009122,1732009122,88,0,4356.410156,4331.538574,4356.666504,4368.077148,4417.820313,4367.94873,4349.358887,4358.589844,4331.410156,4323.589844,4507.05127,4470.641113,4401.794922,4486.025879,2987,4,100,,,,0,4,4,4,4,4,4,4,4,4,4,4,4,4,4,100,,,,,,,,,,,,,,,,,,,,,,,,,,,,,,,,,,,,,,,,,,,,,,,,,,,,,,,,,,,,,,,,,,,,,,,,,,,,,,,,,,,,,,,,,,,,,,,,,,,,,,,,,,,,,,,,,,,,,,,,,,,,,,,,,,,,,,,,,,,,,,,
1732009122,1732009122,89,0,4362.05127,4342.05127,4364.743652,4376.538574,4426.025879,4364.230957,4355.641113,4364.358887,4339.487305,4340.256348,4522.179688,4482.179688,4417.94873,4495.641113,3134,4,100,,,,0,4,4,4,4,4,4,4,4,4,4,4,4,4,4,100,,,,,,,,,,,,,,,,,,,,,,,,,,,,,,,,,,,,,,,,,,,,,,,,,,,,,,,,,,,,,,,,,,,,0,0,64,0.172743,1,0,,,,,,,,,,,,,,,,,,,,,,,,,,,,,,,,,,,,,,,,,,,,,,,,,,,,,,,,,,,,,,,,,,,,,,
1732009122,1732009122,90,0,4360.128418,4333.846191,4355.641113,4369.358887,4429.358887,4355,4354.358887,4364.871582,4337.692383,4330.384766,4514.358887,4478.461426,4407.94873,4489.487305,2555,4,100,,,,0,4,4,4,4,4,4,4,4,4,4,4,4,4,4,100,,,,,,,,,,,,,,,,,,,,,,,,,,,,,,,,,,,,,,,,,,,,,,,,,,,,,,,,,,,,,,,,,,,,,,,,,,,,,,,,,,,,,,,,,,,,,,,,,,,,,,,,,,,,,,,,,,,,,,,,,,,,,,,,,,,,,,,,,,,,,,,
1732009122,1732009122,91,0,4358.077148,4327.820313,4350.897461,4364.871582,4428.205078,4355.384766,4352.179688,4360.641113,4330.256348,4312.307617,4504.743652,4470.256348,4396.410156,4484.743652,2538,4,100,,,,0,4,4,4,4,4,4,4,4,4,4,4,4,4,4,100,,,,,,,,,,,,,,,,,,,,,,,,,,,,,,,,,,,,,,,,,,,,,,,,,,,,,,,,,,,,,,,,,,,,,,,,,,,,,,,,,,,,,,,,,,,,,,,,,,,,,,,,,,,,,,,,,,,,,,,,,,,,,,,,,,,,,,,,,,,,,,,
1732009122,1732009122,92,0,4356.538574,4333.077148,4356.025879,4370.256348,4425.512695,4366.153809,4357.436035,4357.563965,4327.563965,4314.615234,4507.563965,4470,4396.794922,4482.563965,2987,4,100,,,,0,4,4,4,4,4,4,4,4,4,4,4,4,4,4,100,,,,,,,,,,,,,,,,,,,,,,,,,,,,,,,,,,,,,,,,,,,,,,,,,,,,,,,,,,,,,,,,,,,,,,,,,,,,,,,,,,,,,,,,,,,,,,,,,,,,,,,,,,,,,,,,,,,,,,,,,,,,,,,,,,,,,,,,,,,,,,,
1732009122,1732009122,93,0,4354.487305,4331.666504,4353.589844,4368.205078,4427.307617,4364.487305,4357.436035,4355.128418,4327.563965,4320.384766,4504.871582,4467.563965,4396.153809,4474.743652,3134,4,100,,,,0,4,4,4,4,4,4,4,4,4,4,4,4,4,4,100,,,,,,,,,,,,,,,,,,,,,,,,,,,,,,,,,,,,,,,,,,,,,,,,,,,,,,,,,,,,,,,,,,,,0,0,64,0.172743,1,0,,,,,,,,,,,,,,,,,,,,,,,,,,,,,,,,,,,,,,,,,,,,,,,,,,,,,,,,,,,,,,,,,,,,,,
1732009122,1732009122,94,0,4356.025879,4327.563965,4349.102539,4364.358887,4429.743652,4358.077148,4352.05127,4353.205078,4328.205078,4318.717773,4501.282227,4465.256348,4395.769043,4473.717773,2555,4,100,,,,0,4,4,4,4,4,4,4,4,4,4,4,4,4,4,100,,,,,,,,,,,,,,,,,,,,,,,,,,,,,,,,,,,,,,,,,,,,,,,,,,,,,,,,,,,,,,,,,,,,,,,,,,,,,,,,,,,,,,,,,,,,,,,,,,,,,,,,,,,,,,,,,,,,,,,,,,,,,,,,,,,,,,,,,,,,,,,
1732009122,1732009122,95,0,4358.333496,4330.512695,4353.205078,4370.769043,4423.846191,4363.846191,4351.922852,4354.743652,4330.384766,4320.769043,4510.769043,4471.666504,4400.641113,4480.128418,2538,4,100,,,,0,4,4,4,4,4,4,4,4,4,4,4,4,4,4,100,,,,,,,,,,,,,,,,,,,,,,,,,,,,,,,,,,,,,,,,,,,,,,,,,,,,,,,,,,,,,,,,,,,,,,,,,,,,,,,,,,,,,,,,,,,,,,,,,,,,,,,,,,,,,,,,,,,,,,,,,,,,,,,,,,,,,,,,,,,,,,,
1732009122,1732009122,96,0,4356.025879,4330.769043,4356.153809,4371.666504,4423.077148,4366.666504,4352.179688,4358.461426,4329.487305,4325.512695,4517.307617,4475.512695,4402.307617,4478.974121,2987,4,100,,,,0,4,4,4,4,4,4,4,4,4,4,4,4,4,4,100,,,,,,,,,,,,,,,,,,,,,,,,,,,,,,,,,,,,,,,,,,,,,,,,,,,,,,,,,,,,,,,,,,,,,,,,,,,,,,,,,,,,,,,,,,,,,,,,,,,,,,,,,,,,,,,,,,,,,,,,,,,,,,,,,,,,,,,,,,,,,,,
1732009122,1732009122,97,0,4352.820313,4327.94873,4354.743652,4364.102539,4425.641113,4357.692383,4346.794922,4355,4323.589844,4327.05127,4508.717773,4472.05127,4397.563965,4473.974121,3134,4,100,,,,0,4,4,4,4,4,4,4,4,4,4,4,4,4,4,100,,,,,,,,,,,,,,,,,,,,,,,,,,,,,,,,,,,,,,,,,,,,,,,,,,,,,,,,,,,,,,,,,,,,0,0,64,0.172743,1,0,,,,,,,,,,,,,,,,,,,,,,,,,,,,,,,,,,,,,,,,,,,,,,,,,,,,,,,,,,,,,,,,,,,,,,
1732009122,1732009122,98,0,4351.410156,4330.256348,4354.743652,4362.94873,4418.589844,4354.743652,4344.615234,4345.384766,4321.410156,4324.743652,4500.897461,4465.128418,4394.871582,4471.410156,2555,4,100,,,,0,4,4,4,4,4,4,4,4,4,4,4,4,4,4,100,,,,,,,,,,,,,,,,,,,,,,,,,,,,,,,,,,,,,,,,,,,,,,,,,,,,,,,,,,,,,,,,,,,,,,,,,,,,,,,,,,,,,,,,,,,,,,,,,,,,,,,,,,,,,,,,,,,,,,,,,,,,,,,,,,,,,,,,,,,,,,,
1732009122,1732009122,99,0,4349.871582,4333.333496,4355.769043,4368.846191,4417.692383,4359.615234,4345.897461,4343.589844,4326.410156,4326.153809,4501.153809,4457.307617,4400.897461,4471.153809,2538,4,100,,,,0,4,4,4,4,4,4,4,4,4,4,4,4,4,4,100,,,,,,,,,,,,,,,,,,,,,,,,,,,,,,,,,,,,,,,,,,,,,,,,,,,,,,,,,,,,,,,,,,,,,,,,,,,,,,,,,,,,,,,,,,,,,,,,,,,,,,,,,,,,,,,,,,,,,,,,,,,,,,,,,,,,,,,,,,,,,,,
1732009122,1732009122,100,0,4350.769043,4333.333496,4357.692383,4371.282227,4426.410156,4360,4347.307617,4349.615234,4329.743652,4327.307617,4502.820313,4458.589844,4407.179688,4473.589844,2987,4,100,,,,0,4,4,4,4,4,4,4,4,4,4,4,4,4,4,100,,,,,,,,,,,,,,,,,,,,,,,,,,,,,,,,,,,,,,,,,,,,,,,,,,,,,,,,,,,,,,,,,,,,,,,,,,,,,,,,,,,,,,,,,,,,,,,,,,,,,,,,,,,,,,,,,,,,,,,,,,,,,,,,,,,,,,,,,,,,,,,
1732009122,1732009122,101,0,4353.461426,4335,4358.589844,4369.871582,4428.717773,4355.769043,4347.179688,4347.692383,4324.102539,4321.282227,4502.436035,4461.794922,4401.538574,4473.974121,3134,4,100,,,,0,4,4,4,4,4,4,4,4,4,4,4,4,4,4,100,,,,,,,,,,,,,,,,,,,,,,,,,,,,,1,0,0,,,,,,,,,,,,,,,,,,,,,,,,,,,,,,,,,,,,,0,0,64,0.249024,1,0,12.130527,2.225291,0.938409,0.315664,0.088925,11.449564,1.723305,0.667776,0.284934,0.137577,2.456605,0.667551,0.517032,0.29147,0.056989,3.359097,0.935442,0.659465,0.178148,0.077505,0.81811,0.475686,0.242075,0.165631,0.170368,0.32848,0.140108,0.133757,0.147779,0.099041,0.312313,0.29528,0.202002,0.130445,0.092186,0.874601,0.450027,0.309653,0.340806,0.098425,0.742981,0.496931,0.369267,0.438572,0.088424,1.875767,1.243303,1.322905,0.590234,0.170186,3.633544,1.61228,0.912797,0.801976,0.121365,3.679678,1.369718,0.808634,0.606093,0.085851,8.708197,2.366449,2.222367,0.798054,0.298553,10.119654,1.898453,1.166043,0.457981,0.094761
1732009122,1732009122,102,0,4352.820313,4330.512695,4355.897461,4367.179688,4418.717773,4352.307617,4345.769043,4344.358887,4320.641113,4312.179688,4501.153809,4460.769043,4394.230957,4473.077148,2555,4,100,,,,0,4,4,4,4,4,4,4,4,4,4,4,4,4,4,100,,,,,,,,,,,,,,,,,,,,,,,,,,,,,,,,,,,,,,,,,,,,,,,,,,,,,,,,,,,,,,,,,,,,,,,,,,,,,,,,,,,,,,,,,,,,,,,,,,,,,,,,,,,,,,,,,,,,,,,,,,,,,,,,,,,,,,,,,,,,,,,
1732009122,1732009122,103,0,4349.615234,4320.384766,4353.846191,4364.615234,4410.897461,4356.922852,4351.282227,4348.974121,4324.871582,4311.282227,4504.743652,4464.487305,4396.922852,4474.743652,2538,4,100,,,,0,4,4,4,4,4,4,4,4,4,4,4,4,4,4,100,,,,,,,,,,,,,,,,,,,,,,,,,,,,,,,,,,,,,,,,,,,,,,,,,,,,,,,,,,,,,,,,,,,,,,,,,,,,,,,,,,,,,,,,,,,,,,,,,,,,,,,,,,,,,,,,,,,,,,,,,,,,,,,,,,,,,,,,,,,,,,,
1732009122,1732009122,104,0,4350.641113,4321.794922,4356.794922,4366.282227,4418.205078,4362.05127,4354.743652,4348.717773,4322.94873,4315.128418,4502.692383,4466.025879,4391.153809,4469.358887,2987,4,100,,,,0,4,4,4,4,4,4,4,4,4,4,4,4,4,4,100,,,,,,,,,,,,,,,,,,,,,,,,,,,,,,,,,,,,,,,,,,,,,,,,,,,,,,,,,,,,,,,,,,,,,,,,,,,,,,,,,,,,,,,,,,,,,,,,,,,,,,,,,,,,,,,,,,,,,,,,,,,,,,,,,,,,,,,,,,,,,,,
1732009122,1732009122,105,0,4356.538574,4333.846191,4359.230957,4371.922852,4428.974121,4357.820313,4348.461426,4343.461426,4318.333496,4309.615234,4495.128418,4459.871582,4381.410156,4462.436035,3134,4,100,,,,0,4,4,4,4,4,4,4,4,4,4,4,4,4,4,100,,,,,,,,,,,,,,,,,,,,,,,,,,,,,,,,,,,,,,,,,,,,,,,,,,,,,,,,,,,,,,,,,,,,0,0,64,0.249024,1,0,,,,,,,,,,,,,,,,,,,,,,,,,,,,,,,,,,,,,,,,,,,,,,,,,,,,,,,,,,,,,,,,,,,,,,
1732009122,1732009122,106,0,4359.358887,4336.282227,4358.717773,4374.615234,4422.307617,4352.436035,4344.230957,4345.256348,4323.205078,4306.538574,4498.974121,4460.512695,4393.205078,4468.205078,2555,4,100,,,,0,4,4,4,4,4,4,4,4,4,4,4,4,4,4,100,,,,,,,,,,,,,,,,,,,,,,,,,,,,,,,,,,,,,,,,,,,,,,,,,,,,,,,,,,,,,,,,,,,,,,,,,,,,,,,,,,,,,,,,,,,,,,,,,,,,,,,,,,,,,,,,,,,,,,,,,,,,,,,,,,,,,,,,,,,,,,,
1732009122,1732009122,107,0,4353.974121,4326.922852,4356.666504,4368.717773,4410.512695,4351.282227,4345.641113,4346.666504,4321.794922,4312.179688,4503.077148,4465.384766,4409.615234,4471.410156,2538,4,100,,,,0,4,4,4,4,4,4,4,4,4,4,4,4,4,4,100,,,,,,,,,,,,,,,,,,,,,,,,,,,,,,,,,,,,,,,,,,,,,,,,,,,,,,,,,,,,,,,,,,,,,,,,,,,,,,,,,,,,,,,,,,,,,,,,,,,,,,,,,,,,,,,,,,,,,,,,,,,,,,,,,,,,,,,,,,,,,,,
1732009122,1732009122,108,0,4349.358887,4327.179688,4351.922852,4361.922852,4411.922852,4349.230957,4341.410156,4342.692383,4314.487305,4312.179688,4496.666504,4460.256348,4410.769043,4464.743652,2987,4,100,,,,0,4,4,4,4,4,4,4,4,4,4,4,4,4,4,100,,,,,,,,,,,,,,,,,,,,,,,,,,,,,,,,,,,,,,,,,,,,,,,,,,,,,,,,,,,,,,,,,,,,,,,,,,,,,,,,,,,,,,,,,,,,,,,,,,,,,,,,,,,,,,,,,,,,,,,,,,,,,,,,,,,,,,,,,,,,,,,
1732009122,1732009122,109,0,4353.846191,4341.538574,4354.230957,4368.077148,4415.384766,4349.487305,4336.794922,4340.769043,4317.563965,4308.846191,4495.256348,4454.487305,4412.307617,4461.153809,3134,4,100,,,,0,4,4,4,4,4,4,4,4,4,4,4,4,4,4,100,,,,,,,,,,,,,,,,,,,,,,,,,,,,,,,,,,,,,,,,,,,,,,,,,,,,,,,,,,,,,,,,,,,,0,0,64,0.249024,1,0,,,,,,,,,,,,,,,,,,,,,,,,,,,,,,,,,,,,,,,,,,,,,,,,,,,,,,,,,,,,,,,,,,,,,,
1732009122,1732009122,110,0,4358.077148,4352.820313,4358.333496,4375.897461,4415.384766,4353.717773,4339.358887,4339.743652,4321.538574,4311.538574,4497.94873,4454.615234,4418.205078,4461.666504,2555,4,100,,,,0,4,4,4,4,4,4,4,4,4,4,4,4,4,4,100,,,,,,,,,,,,,,,,,,,,,,,,,,,,,,,,,,,,,,,,,,,,,,,,,,,,,,,,,,,,,,,,,,,,,,,,,,,,,,,,,,,,,,,,,,,,,,,,,,,,,,,,,,,,,,,,,,,,,,,,,,,,,,,,,,,,,,,,,,,,,,,
1732009122,1732009122,111,0,4358.077148,4356.282227,4354.487305,4374.487305,4414.230957,4349.743652,4339.230957,4340.256348,4323.077148,4313.205078,4496.538574,4455.128418,4420.641113,4464.743652,2538,4,100,,,,0,4,4,4,4,4,4,4,4,4,4,4,4,4,4,100,,,,,,,,,,,,,,,,,,,,,,,,,,,,,,,,,,,,,,,,,,,,,,,,,,,,,,,,,,,,,,,,,,,,,,,,,,,,,,,,,,,,,,,,,,,,,,,,,,,,,,,,,,,,,,,,,,,,,,,,,,,,,,,,,,,,,,,,,,,,,,,
1732009122,1732009122,112,0,4360.128418,4358.205078,4354.487305,4373.205078,4411.410156,4344.102539,4337.05127,4346.666504,4326.025879,4308.974121,4500.256348,4458.717773,4425.256348,4469.230957,2987,4,100,,,,0,4,4,4,4,4,4,4,4,4,4,4,4,4,4,100,,,,,,,,,,,,,,,,,,,,,,,,,,,,,,,,,,,,,,,,,,,,,,,,,,,,,,,,,,,,,,,,,,,,,,,,,,,,,,,,,,,,,,,,,,,,,,,,,,,,,,,,,,,,,,,,,,,,,,,,,,,,,,,,,,,,,,,,,,,,,,,
1732009122,1732009122,113,0,4362.05127,4361.666504,4361.794922,4375.128418,4408.974121,4344.743652,4336.666504,4348.461426,4322.179688,4304.102539,4501.794922,4460.256348,4430,4467.563965,3134,4,100,,,,0,4,4,4,4,4,4,4,4,4,4,4,4,4,4,100,,,,,,,,,,,,,,,,,,,,,,,,,,,,,,,,,,,,,,,,,,,,,,,,,,,,,,,,,,,,,,,,,,,,0,0,64,0.249024,1,0,,,,,,,,,,,,,,,,,,,,,,,,,,,,,,,,,,,,,,,,,,,,,,,,,,,,,,,,,,,,,,,,,,,,,,
1732009122,1732009122,114,0,4362.179688,4367.563965,4363.077148,4373.974121,4402.307617,4347.179688,4338.205078,4343.846191,4313.333496,4298.205078,4495.897461,4458.205078,4435.897461,4465.256348,2555,4,100,,,,0,4,4,4,4,4,4,4,4,4,4,4,4,4,4,100,,,,,,,,,,,,,,,,,,,,,,,,,,,,,,,,,,,,,,,,,,,,,,,,,,,,,,,,,,,,,,,,,,,,,,,,,,,,,,,,,,,,,,,,,,,,,,,,,,,,,,,,,,,,,,,,,,,,,,,,,,,,,,,,,,,,,,,,,,,,,,,
1732009122,1732009122,115,0,4365,4372.563965,4362.179688,4373.461426,4401.410156,4343.846191,4341.410156,4346.025879,4316.025879,4292.563965,4495.641113,4460.256348,4443.333496,4470.128418,2538,4,100,,,,0,4,4,4,4,4,4,4,4,4,4,4,4,4,4,100,,,,,,,,,,,,,,,,,,,,,,,,,,,,,,,,,,,,,,,,,,,,,,,,,,,,,,,,,,,,,,,,,,,,,,,,,,,,,,,,,,,,,,,,,,,,,,,,,,,,,,,,,,,,,,,,,,,,,,,,,,,,,,,,,,,,,,,,,,,,,,,
1732009122,1732009122,116,0,4364.230957,4370.641113,4366.025879,4376.025879,4410.256348,4339.743652,4344.615234,4352.94873,4324.102539,4293.589844,4496.282227,4461.282227,4441.153809,4469.743652,2987,4,100,,,,0,4,4,4,4,4,4,4,4,4,4,4,4,4,4,100,,,,,,,,,,,,,,,,,,,,,,,,,,,,,,,,,,,,,,,,,,,,,,,,,,,,,,,,,,,,,,,,,,,,,,,,,,,,,,,,,,,,,,,,,,,,,,,,,,,,,,,,,,,,,,,,,,,,,,,,,,,,,,,,,,,,,,,,,,,,,,,
1732009122,1732009122,117,0,4353.846191,4367.179688,4365.256348,4373.461426,4412.820313,4343.717773,4345.256348,4351.538574,4322.563965,4294.102539,4494.615234,4457.05127,4437.820313,4463.077148,3134,4,100,,,,0,4,4,4,4,4,4,4,4,4,4,4,4,4,4,100,,,,,,,,,,,,,,,,,,,,,,,,,,,,,1,0,0,,,,,,,,,,,,,,,,,,,,,,,,,,,,,,,,,,,,,0,0,1,0,2048,1,8.738602,1.783942,0.838488,0.294087,0.086522,8.143265,1.383208,0.517363,0.25375,0.138669,2.006778,0.640656,0.51508,0.286398,0.059227,2.565364,0.801146,0.640546,0.171013,0.074521,0.822185,0.470133,0.185954,0.184055,0.149365,0.30558,0.121575,0.139532,0.168099,0.09482,0.420616,0.267271,0.207578,0.133223,0.097008,0.998752,0.497847,0.24358,0.345305,0.101654,0.751141,0.447805,0.297296,0.446855,0.087248,1.944728,1.089646,1.21411,0.593909,0.159438,2.93918,1.575091,0.85995,0.745824,0.134705,2.909983,1.420956,0.805437,0.609205,0.084987,6.799016,2.710061,2.283637,0.742341,0.322194,7.97997,1.88465,1.13771,0.442328,0.100866
1732009122,1732009122,118,0,4348.077148,4369.102539,4359.230957,4368.717773,4411.922852,4351.153809,4345.897461,4348.333496,4322.563965,4291.538574,4496.410156,4456.538574,4447.179688,4462.820313,2555,4,100,,,,0,4,4,4,4,4,4,4,4,4,4,4,4,4,4,100,,,,,,,,,,,,,,,,,,,,,,,,,,,,,,,,,,,,,,,,,,,,,,,,,,,,,,,,,,,,,,,,,,,,,,,,,,,,,,,,,,,,,,,,,,,,,,,,,,,,,,,,,,,,,,,,,,,,,,,,,,,,,,,,,,,,,,,,,,,,,,,
1732009122,1732009122,119,0,4351.025879,4367.692383,4355.128418,4366.666504,4411.922852,4352.436035,4347.179688,4349.358887,4329.102539,4295.384766,4495.128418,4456.538574,4446.538574,4461.538574,2538,4,100,,,,0,4,4,4,4,4,4,4,4,4,4,4,4,4,4,100,,,,,,,,,,,,,,,,,,,,,,,,,,,,,,,,,,,,,,,,,,,,,,,,,,,,,,,,,,,,,,,,,,,,,,,,,,,,,,,,,,,,,,,,,,,,,,,,,,,,,,,,,,,,,,,,,,,,,,,,,,,,,,,,,,,,,,,,,,,,,,,
1732009122,1732009122,120,0,4346.538574,4357.05127,4354.102539,4360.769043,4402.563965,4344.487305,4339.615234,4345.384766,4327.179688,4297.692383,4486.538574,4447.94873,4424.102539,4450,2987,4,100,,,,0,4,4,4,4,4,4,4,4,4,4,4,4,4,4,100,,,,,,,,,,,,,,,,,,,,,,,,,,,,,,,,,,,,,,,,,,,,,,,,,,,,,,,,,,,,,,,,,,,,,,,,,,,,,,,,,,,,,,,,,,,,,,,,,,,,,,,,,,,,,,,,,,,,,,,,,,,,,,,,,,,,,,,,,,,,,,,
1732009122,1732009122,121,0,4341.922852,4353.205078,4353.589844,4357.94873,4396.153809,4337.563965,4331.025879,4338.974121,4320.256348,4296.538574,4481.666504,4442.05127,4413.717773,4443.717773,3134,4,100,,,,0,4,4,4,4,4,4,4,4,4,4,4,4,4,4,100,,,,,,,,,,,,,,,,,,,,,,,,,,,,,,,,,,,,,,,,,,,,,,,,,,,,,,,,,,,,,,,,,,,,0,0,1,0,2048,1,,,,,,,,,,,,,,,,,,,,,,,,,,,,,,,,,,,,,,,,,,,,,,,,,,,,,,,,,,,,,,,,,,,,,,
1732009122,1732009122,122,0,4349.358887,4361.282227,4355.769043,4365.384766,4407.94873,4341.538574,4334.102539,4342.692383,4324.487305,4303.461426,4485.384766,4449.615234,4426.538574,4452.436035,2555,4,100,,,,0,4,4,4,4,4,4,4,4,4,4,4,4,4,4,100,,,,,,,,,,,,,,,,,,,,,,,,,,,,,,,,,,,,,,,,,,,,,,,,,,,,,,,,,,,,,,,,,,,,,,,,,,,,,,,,,,,,,,,,,,,,,,,,,,,,,,,,,,,,,,,,,,,,,,,,,,,,,,,,,,,,,,,,,,,,,,,
1732009122,1732009122,123,0,4356.538574,4365.769043,4361.025879,4372.563965,4416.922852,4348.974121,4337.05127,4348.589844,4331.538574,4310.769043,4492.820313,4456.794922,4437.179688,4456.794922,2538,4,100,,,,0,4,4,4,4,4,4,4,4,4,4,4,4,4,4,100,,,,,,,,,,,,,,,,,,,,,,,,,,,,,,,,,,,,,,,,,,,,,,,,,,,,,,,,,,,,,,,,,,,,,,,,,,,,,,,,,,,,,,,,,,,,,,,,,,,,,,,,,,,,,,,,,,,,,,,,,,,,,,,,,,,,,,,,,,,,,,,
1732009122,1732009122,124,0,4360,4366.153809,4366.794922,4374.102539,4411.922852,4349.358887,4335.384766,4345,4327.179688,4311.794922,4499.871582,4456.922852,4439.487305,4455,2987,4,100,,,,0,4,4,4,4,4,4,4,4,4,4,4,4,4,4,100,,,,,,,,,,,,,,,,,,,,,,,,,,,,,,,,,,,,,,,,,,,,,,,,,,,,,,,,,,,,,,,,,,,,,,,,,,,,,,,,,,,,,,,,,,,,,,,,,,,,,,,,,,,,,,,,,,,,,,,,,,,,,,,,,,,,,,,,,,,,,,,
1732009122,1732009122,125,0,4366.410156,4369.487305,4370.769043,4376.922852,4411.410156,4346.538574,4338.846191,4342.563965,4324.743652,4308.461426,4503.077148,4459.487305,4442.179688,4462.05127,3134,4,100,,,,0,4,4,4,4,4,4,4,4,4,4,4,4,4,4,100,,,,,,,,,,,,,,,,,,,,,,,,,,,,,,,,,,,,,,,,,,,,,,,,,,,,,,,,,,,,,,,,,,,,0,0,1,0,2048,1,,,,,,,,,,,,,,,,,,,,,,,,,,,,,,,,,,,,,,,,,,,,,,,,,,,,,,,,,,,,,,,,,,,,,,
1732009122,1732009122,126,0,4366.666504,4367.307617,4371.025879,4373.717773,4412.05127,4347.563965,4341.282227,4349.487305,4328.846191,4300.897461,4500.512695,4463.974121,4439.871582,4467.692383,2555,4,100,,,,0,4,4,4,4,4,4,4,4,4,4,4,4,4,4,100,,,,,,,,,,,,,,,,,,,,,,,,,,,,,,,,,,,,,,,,,,,,,,,,,,,,,,,,,,,,,,,,,,,,,,,,,,,,,,,,,,,,,,,,,,,,,,,,,,,,,,,,,,,,,,,,,,,,,,,,,,,,,,,,,,,,,,,,,,,,,,,
1732009122,1732009122,127,0,4360.128418,4356.153809,4368.205078,4363.974121,4404.230957,4344.230957,4337.05127,4352.436035,4331.922852,4299.615234,4501.025879,4463.717773,4433.205078,4461.282227,100,4,100,,,,0,4,4,4,4,4,4,4,4,4,4,4,4,4,4,100,,,,,,,,,,,,,,,,,,,,,,,,,,,,,,,,,,,,,,,,,,,,,,,,,,,,,,,,,,,,,,,,,,,,,,,,,,,,,,,,,,,,,,,,,,,,,,,,,,,,,,,,,,,,,,,,,,,,,,,,,,,,,,,,,,,,,,,,,,,,,,,
1732009122,1732009122,0,0,4360.769043,4353.846191,4367.307617,4366.282227,4400.769043,4340.256348,4337.820313,4348.846191,4329.487305,4309.230957,4508.846191,4465.256348,4432.94873,4458.461426,2429,4,100,,,,0,4,4,4,4,4,4,4,4,4,4,4,4,4,4,100,,,,,,,,,,,,,,,,,,,,,,,,,,,,,,,,,,,,,,,,,,,,,,,,,,,,,,,,,,,,,,,,,,,,,,,,,,,,,,,,,,,,,,,,,,,,,,,,,,,,,,,,,,,,,,,,,,,,,,,,,,,,,,,,,,,,,,,,,,,,,,,
1732009122,1732009122,1,0,4365.769043,4362.307617,4371.666504,4373.589844,4409.358887,4348.333496,4343.205078,4349.615234,4325.128418,4313.205078,4511.666504,4472.307617,4430.641113,4465.256348,2297,4,100,,,,0,4,4,4,4,4,4,4,4,4,4,4,4,4,4,100,,,,,,,,,,,,,,,,,,,,,,,,,,,,,,,,,,,,,,,,,,,,,,,,,,,,,,,,,,,,,,,,,,,,0,0,1,0,2048,1,,,,,,,,,,,,,,,,,,,,,,,,,,,,,,,,,,,,,,,,,,,,,,,,,,,,,,,,,,,,,,,,,,,,,,
1732009122,1732009122,2,0,4366.410156,4361.538574,4374.743652,4370.641113,4413.461426,4355.769043,4342.94873,4350.384766,4328.974121,4308.461426,4505.384766,4475.512695,4422.05127,4468.846191,2119,4,100,,,,0,4,4,4,4,4,4,4,4,4,4,4,4,4,4,100,,,,,,,,,,,,,,,,,,,,,,,,,,,,,,,,,,,,,,,,,,,,,,,,,,,,,,,,,,,,,,,,,,,,,,,,,,,,,,,,,,,,,,,,,,,,,,,,,,,,,,,,,,,,,,,,,,,,,,,,,,,,,,,,,,,,,,,,,,,,,,,
1732009122,1732009122,3,0,4363.461426,4351.794922,4371.922852,4364.487305,4402.179688,4347.05127,4341.410156,4345.256348,4332.94873,4310.769043,4501.025879,4472.820313,4422.05127,4464.615234,2289,4,100,,,,0,4,4,4,4,4,4,4,4,4,4,4,4,4,4,100,,,,,,,,,,,,,,,,,,,,,,,,,,,,,,,,,,,,,,,,,,,,,,,,,,,,,,,,,,,,,,,,,,,,,,,,,,,,,,,,,,,,,,,,,,,,,,,,,,,,,,,,,,,,,,,,,,,,,,,,,,,,,,,,,,,,,,,,,,,,,,,
1732009122,1732009122,4,0,4359.358887,4349.743652,4370,4365.769043,4400.384766,4342.436035,4345.512695,4345.384766,4326.922852,4311.922852,4501.794922,4469.871582,4427.820313,4458.717773,2433,4,100,,,,0,4,4,4,4,4,4,4,4,4,4,4,4,4,4,100,,,,,,,,,,,,,,,,,,,,,,,,,,,,,,,,,,,,,,,,,,,,,,,,,,,,,,,,,,,,,,,,,,,,,,,,,,,,,,,,,,,,,,,,,,,,,,,,,,,,,,,,,,,,,,,,,,,,,,,,,,,,,,,,,,,,,,,,,,,,,,,
1732009122,1732009122,5,0,4362.05127,4354.358887,4372.307617,4370.384766,4409.358887,4352.820313,4347.563965,4353.974121,4326.025879,4307.94873,4502.563965,4470.641113,4428.846191,4459.487305,2371,4,100,,,,0,4,4,4,4,4,4,4,4,4,4,4,4,4,4,100,,,,,,,,,,,,,,,,,,,,,,,,,,,,,1,0,0,,,,,,,,,,,,,,,,,,,,,,,,,,,,,,,,,,,,,0,0,64,0.260804,1,0,5.41604,1.325534,0.704637,0.260588,0.090785,5.098831,1.012946,0.394866,0.234808,0.146918,1.517551,0.610067,0.463086,0.261305,0.06443,1.765317,0.634792,0.572509,0.163863,0.074335,0.82257,0.4402,0.141536,0.20836,0.130053,0.262904,0.111953,0.139793,0.178439,0.09113,0.528386,0.247491,0.210628,0.127277,0.099804,1.12784,0.514525,0.181802,0.314182,0.10239,0.766077,0.456031,0.241789,0.415509,0.087009,1.97284,0.988933,1.027734,0.548992,0.155099,2.200747,1.476579,0.727312,0.640482,0.151183,2.050408,1.380414,0.734956,0.561572,0.088834,5.215782,2.929784,2.103719,0.649563,0.325839,5.588708,1.743202,0.990242,0.397909,0.111765
1732009122,1732009122,6,0,4368.077148,4355.512695,4371.538574,4372.436035,4411.282227,4358.461426,4344.102539,4359.230957,4339.615234,4309.358887,4502.820313,4472.692383,4427.94873,4463.205078,1808,4,100,,,,0,4,4,4,4,4,4,4,4,4,4,4,4,4,4,100,,,,,,,,,,,,,,,,,,,,,,,,,,,,,,,,,,,,,,,,,,,,,,,,,,,,,,,,,,,,,,,,,,,,,,,,,,,,,,,,,,,,,,,,,,,,,,,,,,,,,,,,,,,,,,,,,,,,,,,,,,,,,,,,,,,,,,,,,,,,,,,
1732009122,1732009122,7,0,4367.692383,4357.436035,4369.358887,4374.487305,4418.461426,4352.820313,4345.384766,4361.794922,4346.538574,4313.205078,4502.436035,4474.102539,4425.128418,4461.794922,1990,4,100,,,,0,4,4,4,4,4,4,4,4,4,4,4,4,4,4,100,,,,,,,,,,,,,,,,,,,,,,,,,,,,,,,,,,,,,,,,,,,,,,,,,,,,,,,,,,,,,,,,,,,,,,,,,,,,,,,,,,,,,,,,,,,,,,,,,,,,,,,,,,,,,,,,,,,,,,,,,,,,,,,,,,,,,,,,,,,,,,,
1732009122,1732009122,8,0,4364.358887,4357.563965,4370.769043,4376.666504,4425,4349.230957,4347.94873,4364.230957,4339.487305,4313.205078,4503.589844,4472.820313,4420.128418,4459.487305,2024,4,100,,,,0,4,4,4,4,4,4,4,4,4,4,4,4,4,4,100,,,,,,,,,,,,,,,,,,,,,,,,,,,,,,,,,,,,,,,,,,,,,,,,,,,,,,,,,,,,,,,,,,,,,,,,,,,,,,,,,,,,,,,,,,,,,,,,,,,,,,,,,,,,,,,,,,,,,,,,,,,,,,,,,,,,,,,,,,,,,,,
1732009122,1732009122,9,0,4362.179688,4352.307617,4368.205078,4373.333496,4421.410156,4351.666504,4341.282227,4358.205078,4333.846191,4309.358887,4500.897461,4464.871582,4419.871582,4455.641113,2464,4,100,,,,0,4,4,4,4,4,4,4,4,4,4,4,4,4,4,100,,,,,,,,,,,,,,,,,,,,,,,,,,,,,,,,,,,,,,,,,,,,,,,,,,,,,,,,,,,,,,,,,,,,0,0,64,0.260804,1,0,,,,,,,,,,,,,,,,,,,,,,,,,,,,,,,,,,,,,,,,,,,,,,,,,,,,,,,,,,,,,,,,,,,,,,
1732009122,1732009122,10,0,4361.538574,4354.615234,4364.102539,4371.794922,4423.717773,4352.307617,4334.615234,4350.256348,4332.436035,4308.461426,4495.256348,4460.512695,4420.256348,4453.333496,2548,4,100,,,,0,4,4,4,4,4,4,4,4,4,4,4,4,4,4,100,,,,,,,,,,,,,,,,,,,,,,,,,,,,,,,,,,,,,,,,,,,,,,,,,,,,,,,,,,,,,,,,,,,,,,,,,,,,,,,,,,,,,,,,,,,,,,,,,,,,,,,,,,,,,,,,,,,,,,,,,,,,,,,,,,,,,,,,,,,,,,,
1732009122,1732009122,11,0,4363.205078,4362.05127,4363.333496,4377.692383,4430.256348,4346.794922,4336.794922,4351.666504,4331.025879,4311.666504,4498.461426,4463.461426,4413.205078,4455.384766,2536,4,100,,,,0,4,4,4,4,4,4,4,4,4,4,4,4,4,4,100,,,,,,,,,,,,,,,,,,,,,,,,,,,,,,,,,,,,,,,,,,,,,,,,,,,,,,,,,,,,,,,,,,,,,,,,,,,,,,,,,,,,,,,,,,,,,,,,,,,,,,,,,,,,,,,,,,,,,,,,,,,,,,,,,,,,,,,,,,,,,,,
1732009122,1732009122,12,0,4362.563965,4357.436035,4363.589844,4376.025879,4419.358887,4342.05127,4340.641113,4351.410156,4329.743652,4313.077148,4500.897461,4465.256348,4408.589844,4456.153809,2982,4,100,,,,0,4,4,4,4,4,4,4,4,4,4,4,4,4,4,100,,,,,,,,,,,,,,,,,,,,,,,,,,,,,,,,,,,,,,,,,,,,,,,,,,,,,,,,,,,,,,,,,,,,,,,,,,,,,,,,,,,,,,,,,,,,,,,,,,,,,,,,,,,,,,,,,,,,,,,,,,,,,,,,,,,,,,,,,,,,,,,
1732009122,1732009122,13,0,4360.384766,4351.538574,4364.230957,4369.743652,4407.692383,4344.358887,4339.487305,4347.436035,4328.205078,4312.820313,4499.358887,4466.410156,4411.153809,4456.410156,3122,4,100,,,,0,4,4,4,4,4,4,4,4,4,4,4,4,4,4,100,,,,,,,,,,,,,,,,,,,,,,,,,,,,,,,,,,,,,,,,,,,,,,,,,,,,,,,,,,,,,,,,,,,,0,0,64,0.260804,1,0,,,,,,,,,,,,,,,,,,,,,,,,,,,,,,,,,,,,,,,,,,,,,,,,,,,,,,,,,,,,,,,,,,,,,,
1732009122,1732009122,14,0,4363.717773,4354.743652,4363.974121,4372.05127,4413.205078,4344.358887,4334.871582,4350.897461,4328.333496,4312.307617,4504.230957,4469.743652,4415,4460.128418,2548,4,100,,,,0,4,4,4,4,4,4,4,4,4,4,4,4,4,4,100,,,,,,,,,,,,,,,,,,,,,,,,,,,,,,,,,,,,,,,,,,,,,,,,,,,,,,,,,,,,,,,,,,,,,,,,,,,,,,,,,,,,,,,,,,,,,,,,,,,,,,,,,,,,,,,,,,,,,,,,,,,,,,,,,,,,,,,,,,,,,,,
1732009122,1732009122,15,0,4365.897461,4354.615234,4364.871582,4374.871582,4410.384766,4342.692383,4334.230957,4354.487305,4332.563965,4310.641113,4505.512695,4472.436035,4412.307617,4461.025879,2536,4,100,,,,0,4,4,4,4,4,4,4,4,4,4,4,4,4,4,100,,,,,,,,,,,,,,,,,,,,,,,,,,,,,,,,,,,,,,,,,,,,,,,,,,,,,,,,,,,,,,,,,,,,,,,,,,,,,,,,,,,,,,,,,,,,,,,,,,,,,,,,,,,,,,,,,,,,,,,,,,,,,,,,,,,,,,,,,,,,,,,
1732009122,1732009122,16,0,4363.589844,4352.05127,4366.794922,4370.512695,4404.871582,4346.666504,4337.307617,4355.256348,4337.820313,4310.128418,4502.05127,4472.563965,4413.077148,4460.256348,0,4,100,,,,0,4,4,4,4,4,4,4,4,4,4,4,4,4,4,100,,,,,,,,,,,,,,,,,,,,,,,,,,,,,,,,,,,,,,,,,,,,,,,,,,,,,,,,,,,,,,,,,,,,,,,,,,,,,,,,,,,,,,,,,,,,,,,,,,,,,,,,,,,,,,,,,,,,,,,,,,,,,,,,,,,,,,,,,,,,,,,
1732009122,1732009122,17,0,4365.128418,4352.307617,4365.769043,4366.666504,4408.974121,4348.077148,4340,4360,4341.410156,4317.436035,4512.820313,4476.922852,4427.94873,4466.153809,0,4,100,,,,0,4,4,4,4,4,4,4,4,4,4,4,4,4,4,100,,,,,,,,,,,,,,,,,,,,,,,,,,,,,,,,,,,,,,,,,,,,,,,,,,,,,,,,,,,,,,,,,,,,0,0,64,0.260804,1,0,,,,,,,,,,,,,,,,,,,,,,,,,,,,,,,,,,,,,,,,,,,,,,,,,,,,,,,,,,,,,,,,,,,,,,
1732009122,1732009122,18,0,4365.641113,4350.769043,4361.922852,4368.846191,4408.205078,4343.205078,4336.922852,4357.94873,4337.436035,4325.897461,4521.410156,4475.641113,4435.512695,4466.410156,0,4,100,,,,0,4,4,4,4,4,4,4,4,4,4,4,4,4,4,100,,,,,,,,,,,,,,,,,,,,,,,,,,,,,,,,,,,,,,,,,,,,,,,,,,,,,,,,,,,,,,,,,,,,,,,,,,,,,,,,,,,,,,,,,,,,,,,,,,,,,,,,,,,,,,,,,,,,,,,,,,,,,,,,,,,,,,,,,,,,,,,
1732009122,1732009122,19,0,4361.922852,4352.307617,4361.794922,4374.230957,4407.563965,4339.743652,4329.743652,4348.846191,4331.922852,4322.307617,4507.94873,4466.666504,4423.974121,4457.307617,0,4,100,,,,0,4,4,4,4,4,4,4,4,4,4,4,4,4,4,100,,,,,,,,,,,,,,,,,,,,,,,,,,,,,,,,,,,,,,,,,,,,,,,,,,,,,,,,,,,,,,,,,,,,,,,,,,,,,,,,,,,,,,,,,,,,,,,,,,,,,,,,,,,,,,,,,,,,,,,,,,,,,,,,,,,,,,,,,,,,,,,
1732009122,1732009122,20,0,4361.794922,4360,4362.820313,4376.666504,4412.436035,4343.205078,4330.256348,4352.820313,4336.025879,4314.871582,4504.102539,4464.487305,4417.436035,4455.641113,0,4,100,,,,0,4,4,4,4,4,4,4,4,4,4,4,4,4,4,100,,,,,,,,,,,,,,,,,,,,,,,,,,,,,,,,,,,,,,,,,,,,,,,,,,,,,,,,,,,,,,,,,,,,,,,,,,,,,,,,,,,,,,,,,,,,,,,,,,,,,,,,,,,,,,,,,,,,,,,,,,,,,,,,,,,,,,,,,,,,,,,
1732009122,1732009122,21,0,4358.333496,4355.384766,4358.205078,4372.05127,4409.230957,4345.897461,4334.358887,4358.974121,4339.487305,4313.077148,4511.922852,4464.615234,4419.102539,4457.05127,0,4,100,,,,0,4,4,4,4,4,4,4,4,4,4,4,4,4,4,100,1,100,4,4,4,4,4,4,4,4,4,4,4,4,4,4,,,,,,,,,,,,,1,0,0,,,,,,,,,,,,,,,,,,,,,,,,,,,,,,,,,,,,,0,0,64,0.133534,1,0,2.883444,0.927688,0.556519,0.219827,0.098365,2.863246,0.689748,0.314108,0.23342,0.156542,1.080483,0.562078,0.378396,0.224359,0.071868,1.093673,0.467628,0.469535,0.161376,0.075893,0.780553,0.399329,0.112686,0.229805,0.11584,0.211146,0.108129,0.134636,0.17767,0.08795,0.615025,0.247662,0.2061,0.114767,0.098608,1.222981,0.498928,0.131205,0.259862,0.099638,0.777957,0.507288,0.198783,0.358055,0.085719,1.892788,0.901801,0.799949,0.469247,0.159021,1.587966,1.325576,0.554462,0.517462,0.169032,1.331426,1.262248,0.621329,0.484353,0.095595,4.163676,2.919327,1.752417,0.548208,0.313849,3.556252,1.508825,0.76775,0.337687,0.125685
1732009122,1732009122,22,0,4352.436035,4346.025879,4355.256348,4369.743652,4402.94873,4346.153809,4334.743652,4352.94873,4335.128418,4312.692383,4507.179688,4460.384766,4412.94873,4452.94873,0,4,100,,,,0,4,4,4,4,4,4,4,4,4,4,4,4,4,4,100,,,,,,,,,,,,,,,,,,,,,,,,,,,,,,,,,,,,,,,,,,,,,,,,,,,,,,,,,,,,,,,,,,,,,,,,,,,,,,,,,,,,,,,,,,,,,,,,,,,,,,,,,,,,,,,,,,,,,,,,,,,,,,,,,,,,,,,,,,,,,,,
1732009122,1732009122,23,0,4357.179688,4350.897461,4357.820313,4371.410156,4411.153809,4345.641113,4336.666504,4351.922852,4335.384766,4314.230957,4503.077148,4461.025879,4411.153809,4452.820313,0,4,100,,,,0,4,4,4,4,4,4,4,4,4,4,4,4,4,4,100,,,,,,,,,,,,,,,,,,,,,,,,,,,,,,,,,,,,,,,,,,,,,,,,,,,,,,,,,,,,,,,,,,,,,,,,,,,,,,,,,,,,,,,,,,,,,,,,,,,,,,,,,,,,,,,,,,,,,,,,,,,,,,,,,,,,,,,,,,,,,,,
1732009122,1732009122,24,0,4364.358887,4354.871582,4359.358887,4370.384766,4417.179688,4342.94873,4341.025879,4358.589844,4340.512695,4319.871582,4512.94873,4470.128418,4422.94873,4460.641113,0,4,100,,,,0,4,4,4,4,4,4,4,4,4,4,4,4,4,4,100,,,,,,,,,,,,,,,,,,,,,,,,,,,,,,,,,,,,,,,,,,,,,,,,,,,,,,,,,,,,,,,,,,,,,,,,,,,,,,,,,,,,,,,,,,,,,,,,,,,,,,,,,,,,,,,,,,,,,,,,,,,,,,,,,,,,,,,,,,,,,,,
1732009122,1732009122,25,0,4360.256348,4347.94873,4357.94873,4369.102539,4410.897461,4342.179688,4341.410156,4355.256348,4334.230957,4318.205078,4515.512695,4470.384766,4426.153809,4459.615234,0,4,100,,,,0,4,4,4,4,4,4,4,4,4,4,4,4,4,4,100,,,,,,,,,,,,,,,,,,,,,,,,,,,,,,,,,,,,,,,,,,,,,,,,,,,,,,,,,,,,,,,,,,,,0,0,64,0.133534,1,0,,,,,,,,,,,,,,,,,,,,,,,,,,,,,,,,,,,,,,,,,,,,,,,,,,,,,,,,,,,,,,,,,,,,,,
1732009122,1732009122,26,0,4355.897461,4346.538574,4358.461426,4370.641113,4412.692383,4347.692383,4339.102539,4349.487305,4327.436035,4312.307617,4509.487305,4466.410156,4423.205078,4453.333496,0,4,100,,,,0,4,4,4,4,4,4,4,4,4,4,4,4,4,4,100,,,,,,,,,,,,,,,,,,,,,,,,,,,,,,,,,,,,,,,,,,,,,,,,,,,,,,,,,,,,,,,,,,,,,,,,,,,,,,,,,,,,,,,,,,,,,,,,,,,,,,,,,,,,,,,,,,,,,,,,,,,,,,,,,,,,,,,,,,,,,,,
1732009122,1732009122,27,0,4359.743652,4351.922852,4360.128418,4373.974121,4414.871582,4353.205078,4339.871582,4355.769043,4333.974121,4313.846191,4511.922852,4468.974121,4426.025879,4454.615234,0,4,100,,,,0,4,4,4,4,4,4,4,4,4,4,4,4,4,4,100,,,,,,,,,,,,,,,,,,,,,,,,,,,,,,,,,,,,,,,,,,,,,,,,,,,,,,,,,,,,,,,,,,,,,,,,,,,,,,,,,,,,,,,,,,,,,,,,,,,,,,,,,,,,,,,,,,,,,,,,,,,,,,,,,,,,,,,,,,,,,,,
1732009122,1732009122,28,0,4359.487305,4349.358887,4358.461426,4372.820313,4408.077148,4352.692383,4342.692383,4361.538574,4341.794922,4319.487305,4512.692383,4466.922852,4420.897461,4455.769043,0,4,100,,,,0,4,4,4,4,4,4,4,4,4,4,4,4,4,4,100,,,,,,,,,,,,,,,,,,,,,,,,,,,,,,,,,,,,,,,,,,,,,,,,,,,,,,,,,,,,,,,,,,,,,,,,,,,,,,,,,,,,,,,,,,,,,,,,,,,,,,,,,,,,,,,,,,,,,,,,,,,,,,,,,,,,,,,,,,,,,,,
1732009122,1732009122,29,0,4352.436035,4343.717773,4356.025879,4367.820313,4407.563965,4351.922852,4342.692383,4359.487305,4343.333496,4321.666504,4507.05127,4466.153809,4408.717773,4451.922852,0,4,100,,,,0,4,4,4,4,4,4,4,4,4,4,4,4,4,4,100,,,,,,,,,,,,,,,,,,,,,,,,,,,,,,,,,,,,,,,,,,,,,,,,,,,,,,,,,,,,,,,,,,,,0,0,64,0.133534,1,0,,,,,,,,,,,,,,,,,,,,,,,,,,,,,,,,,,,,,,,,,,,,,,,,,,,,,,,,,,,,,,,,,,,,,,
1732009122,1732009122,30,0,4353.846191,4344.871582,4358.846191,4367.05127,4412.05127,4351.794922,4342.05127,4360.897461,4345.769043,4320.769043,4507.436035,4471.410156,4410.512695,4450.769043,0,4,100,,,,0,4,4,4,4,4,4,4,4,4,4,4,4,4,4,100,,,,,,,,,,,,,,,,,,,,,,,,,,,,,,,,,,,,,,,,,,,,,,,,,,,,,,,,,,,,,,,,,,,,,,,,,,,,,,,,,,,,,,,,,,,,,,,,,,,,,,,,,,,,,,,,,,,,,,,,,,,,,,,,,,,,,,,,,,,,,,,
1732009122,1732009122,31,0,4357.179688,4345.128418,4360.641113,4368.717773,4406.410156,4349.102539,4341.282227,4365.641113,4349.358887,4322.692383,4513.461426,4473.717773,4415.641113,4453.461426,0,4,100,,,,0,4,4,4,4,4,4,4,4,4,4,4,4,4,4,100,,,,,,,,,,,,,,,,,,,,,,,,,,,,,,,,,,,,,,,,,,,,,,,,,,,,,,,,,,,,,,,,,,,,,,,,,,,,,,,,,,,,,,,,,,,,,,,,,,,,,,,,,,,,,,,,,,,,,,,,,,,,,,,,,,,,,,,,,,,,,,,
1732009122,1732009122,32,0,4353.589844,4342.307617,4354.743652,4367.563965,4397.692383,4344.358887,4337.820313,4366.153809,4345.512695,4327.179688,4515.256348,4468.846191,4407.307617,4452.179688,0,4,100,,,,0,4,4,4,4,4,4,4,4,4,4,4,4,4,4,100,,,,,,,,,,,,,,,,,,,,,,,,,,,,,,,,,,,,,,,,,,,,,,,,,,,,,,,,,,,,,,,,,,,,,,,,,,,,,,,,,,,,,,,,,,,,,,,,,,,,,,,,,,,,,,,,,,,,,,,,,,,,,,,,,,,,,,,,,,,,,,,
1732009122,1732009122,33,0,4356.538574,4343.717773,4355.512695,4367.820313,4400.769043,4343.974121,4341.538574,4366.153809,4340.128418,4328.077148,4516.153809,4470.128418,4407.563965,4453.846191,0,4,100,,,,0,4,4,4,4,4,4,4,4,4,4,4,4,4,4,100,,,,,,,,,,,,,,,,,,,,,,,,,,,,,,,,,,,,,,,,,,,,,,,,,,,,,,,,,,,,,,,,,,,,0,0,64,0.133534,1,0,,,,,,,,,,,,,,,,,,,,,,,,,,,,,,,,,,,,,,,,,,,,,,,,,,,,,,,,,,,,,,,,,,,,,,
1732009122,1732009122,34,0,4361.025879,4347.307617,4364.102539,4367.94873,4406.282227,4348.333496,4347.307617,4365.641113,4343.333496,4325.256348,4520.256348,4477.436035,4416.153809,4459.871582,0,4,100,,,,0,4,4,4,4,4,4,4,4,4,4,4,4,4,4,100,,,,,,,,,,,,,,,,,,,,,,,,,,,,,,,,,,,,,,,,,,,,,,,,,,,,,,,,,,,,,,,,,,,,,,,,,,,,,,,,,,,,,,,,,,,,,,,,,,,,,,,,,,,,,,,,,,,,,,,,,,,,,,,,,,,,,,,,,,,,,,,
1732009122,1732009122,35,0,4355,4343.846191,4360.897461,4366.282227,4405.512695,4346.410156,4342.94873,4360.512695,4345.641113,4324.230957,4517.436035,4473.974121,4411.025879,4456.538574,0,4,100,,,,0,4,4,4,4,4,4,4,4,4,4,4,4,4,4,100,,,,,,,,,,,,,,,,,,,,,,,,,,,,,,,,,,,,,,,,,,,,,,,,,,,,,,,,,,,,,,,,,,,,,,,,,,,,,,,,,,,,,,,,,,,,,,,,,,,,,,,,,,,,,,,,,,,,,,,,,,,,,,,,,,,,,,,,,,,,,,,
1732009122,1732009122,36,0,4354.743652,4342.436035,4356.282227,4369.487305,4410.897461,4345,4339.615234,4357.179688,4342.820313,4326.025879,4513.846191,4470.641113,4406.538574,4455.256348,0,4,100,,,,0,4,4,4,4,4,4,4,4,4,4,4,4,4,4,100,,,,,,,,,,,,,,,,,,,,,,,,,,,,,,,,,,,,,,,,,,,,,,,,,,,,,,,,,,,,,,,,,,,,,,,,,,,,,,,,,,,,,,,,,,,,,,,,,,,,,,,,,,,,,,,,,,,,,,,,,,,,,,,,,,,,,,,,,,,,,,,
1732009122,1732009122,37,0,4363.333496,4348.717773,4368.205078,4374.358887,4421.282227,4350.128418,4343.589844,4359.743652,4341.794922,4327.05127,4518.461426,4478.205078,4411.922852,4466.153809,0,4,100,,,,0,4,4,4,4,4,4,4,4,4,4,4,4,4,4,100,,,,,,,,,,,,,,,,,,,,,,,,,,,,,1,0,0,,,,,,,,,,,,,,,,,,,,,,,,,,,,,,,,,,,,,0,0,1,0,2048,0.467526,1.399842,0.644215,0.41567,0.178072,0.105149,1.629345,0.467644,0.264713,0.247163,0.163086,0.754266,0.503316,0.286684,0.18542,0.080179,0.621404,0.338005,0.352347,0.165903,0.078586,0.679782,0.368592,0.099218,0.247279,0.110357,0.162243,0.106302,0.1263,0.169298,0.087789,0.65714,0.277084,0.191929,0.100247,0.093467,1.247699,0.46465,0.098765,0.202744,0.094107,0.769887,0.568643,0.159509,0.295254,0.084198,1.69162,0.813456,0.577029,0.385042,0.170172,1.19381,1.145449,0.385863,0.413693,0.185027,0.8834,1.106788,0.498515,0.406374,0.102697,3.574984,2.634383,1.34615,0.465819,0.294782,2.176865,1.252004,0.529658,0.27947,0.139628
1732009123,1732009123,38,0,4362.563965,4351.410156,4375.641113,4375,4418.717773,4347.307617,4346.025879,4359.102539,4341.794922,4327.94873,4519.358887,4482.692383,4410.641113,4468.974121,0,4,100,,,,0,4,4,4,4,4,4,4,4,4,4,4,4,4,4,100,,,,,,,,,,,,,,,,,,,,,,,,,,,,,,,,,,,,,,,,,,,,,,,,,,,,,,,,,,,,,,,,,,,,,,,,,,,,,,,,,,,,,,,,,,,,,,,,,,,,,,,,,,,,,,,,,,,,,,,,,,,,,,,,,,,,,,,,,,,,,,,
1732009123,1732009123,39,0,4354.230957,4345.897461,4369.102539,4371.410156,4410.128418,4339.871582,4344.487305,4355.769043,4336.666504,4324.743652,4512.563965,4473.589844,4403.461426,4456.282227,0,4,100,,,,0,4,4,4,4,4,4,4,4,4,4,4,4,4,4,100,,,,,,,,,,,,,,,,,,,,,,,,,,,,,,,,,,,,,,,,,,,,,,,,,,,,,,,,,,,,,,,,,,,,,,,,,,,,,,,,,,,,,,,,,,,,,,,,,,,,,,,,,,,,,,,,,,,,,,,,,,,,,,,,,,,,,,,,,,,,,,,
1732009123,1732009123,40,0,4353.846191,4342.05127,4366.666504,4366.153809,4409.743652,4341.538574,4344.487305,4356.025879,4333.974121,4320.897461,4511.794922,4467.179688,4407.820313,4453.333496,0,4,100,,,,0,4,4,4,4,4,4,4,4,4,4,4,4,4,4,100,,,,,,,,,,,,,,,,,,,,,,,,,,,,,,,,,,,,,,,,,,,,,,,,,,,,,,,,,,,,,,,,,,,,,,,,,,,,,,,,,,,,,,,,,,,,,,,,,,,,,,,,,,,,,,,,,,,,,,,,,,,,,,,,,,,,,,,,,,,,,,,
1732009123,1732009123,41,0,4356.410156,4340.128418,4370,4364.487305,4407.692383,4346.794922,4345.256348,4355.256348,4334.230957,4318.077148,4515.384766,4469.871582,4417.179688,4457.94873,0,4,100,,,,0,4,4,4,4,4,4,4,4,4,4,4,4,4,4,100,,,,,,,,,,,,,,,,,,,,,,,,,,,,,,,,,,,,,,,,,,,,,,,,,,,,,,,,,,,,,,,,,,,,0,0,1,0,2048,0.467526,,,,,,,,,,,,,,,,,,,,,,,,,,,,,,,,,,,,,,,,,,,,,,,,,,,,,,,,,,,,,,,,,,,,,,
1732009123,1732009123,42,0,4353.717773,4333.077148,4369.102539,4364.871582,4404.230957,4350.384766,4342.307617,4351.538574,4329.871582,4313.333496,4507.436035,4465.128418,4415.256348,4452.05127,0,4,100,,,,0,4,4,4,4,4,4,4,4,4,4,4,4,4,4,100,,,,,,,,,,,,,,,,,,,,,,,,,,,,,,,,,,,,,,,,,,,,,,,,,,,,,,,,,,,,,,,,,,,,,,,,,,,,,,,,,,,,,,,,,,,,,,,,,,,,,,,,,,,,,,,,,,,,,,,,,,,,,,,,,,,,,,,,,,,,,,,
1732009123,1732009123,43,0,4352.820313,4330.897461,4369.230957,4362.692383,4406.025879,4351.666504,4341.794922,4349.487305,4327.94873,4310.641113,4500.256348,4462.692383,4407.563965,4446.666504,0,4,100,,,,0,4,4,4,4,4,4,4,4,4,4,4,4,4,4,100,,,,,,,,,,,,,,,,,,,,,,,,,,,,,,,,,,,,,,,,,,,,,,,,,,,,,,,,,,,,,,,,,,,,,,,,,,,,,,,,,,,,,,,,,,,,,,,,,,,,,,,,,,,,,,,,,,,,,,,,,,,,,,,,,,,,,,,,,,,,,,,
1732009123,1732009123,44,0,4357.179688,4340.384766,4374.871582,4362.692383,4406.922852,4349.487305,4343.333496,4350.256348,4330.897461,4314.487305,4510.384766,4471.025879,4413.717773,4453.589844,0,4,100,,,,0,4,4,4,4,4,4,4,4,4,4,4,4,4,4,100,,,,,,,,,,,,,,,,,,,,,,,,,,,,,,,,,,,,,,,,,,,,,,,,,,,,,,,,,,,,,,,,,,,,,,,,,,,,,,,,,,,,,,,,,,,,,,,,,,,,,,,,,,,,,,,,,,,,,,,,,,,,,,,,,,,,,,,,,,,,,,,
1732009123,1732009123,45,0,4361.666504,4343.846191,4380.769043,4367.436035,4408.589844,4350.128418,4344.615234,4354.358887,4333.846191,4322.563965,4520.384766,4479.871582,4425.897461,4462.179688,0,4,100,,,,0,4,4,4,4,4,4,4,4,4,4,4,4,4,4,100,,,,,,,,,,,,,,,,,,,,,,,,,,,,,,,,,,,,,,,,,,,,,,,,,,,,,,,,,,,,,,,,,,,,0,0,1,0,2048,0.467526,,,,,,,,,,,,,,,,,,,,,,,,,,,,,,,,,,,,,,,,,,,,,,,,,,,,,,,,,,,,,,,,,,,,,,
1732009123,1732009123,46,0,4361.410156,4339.615234,4382.820313,4370,4417.820313,4352.563965,4348.205078,4362.692383,4338.205078,4327.307617,4515.769043,4482.179688,4417.94873,4461.410156,0,4,100,,,,0,4,4,4,4,4,4,4,4,4,4,4,4,4,4,100,,,,,,,,,,,,,,,,,,,,,,,,,,,,,,,,,,,,,,,,,,,,,,,,,,,,,,,,,,,,,,,,,,,,,,,,,,,,,,,,,,,,,,,,,,,,,,,,,,,,,,,,,,,,,,,,,,,,,,,,,,,,,,,,,,,,,,,,,,,,,,,
1732009123,1732009123,47,0,4359.743652,4338.974121,4381.410156,4369.743652,4413.974121,4348.205078,4345.769043,4362.94873,4341.025879,4325.641113,4514.358887,4480.769043,4411.922852,4458.974121,0,4,100,,,,0,4,4,4,4,4,4,4,4,4,4,4,4,4,4,100,,,,,,,,,,,,,,,,,,,,,,,,,,,,,,,,,,,,,,,,,,,,,,,,,,,,,,,,,,,,,,,,,,,,,,,,,,,,,,,,,,,,,,,,,,,,,,,,,,,,,,,,,,,,,,,,,,,,,,,,,,,,,,,,,,,,,,,,,,,,,,,
1732009123,1732009123,48,0,4361.794922,4339.358887,4381.922852,4371.922852,4400.256348,4343.846191,4344.358887,4357.307617,4335.384766,4325.384766,4519.487305,4479.358887,4426.282227,4462.05127,0,4,100,,,,0,4,4,4,4,4,4,4,4,4,4,4,4,4,4,100,,,,,,,,,,,,,,,,,,,,,,,,,,,,,,,,,,,,,,,,,,,,,,,,,,,,,,,,,,,,,,,,,,,,,,,,,,,,,,,,,,,,,,,,,,,,,,,,,,,,,,,,,,,,,,,,,,,,,,,,,,,,,,,,,,,,,,,,,,,,,,,
1732009123,1732009123,49,0,4366.410156,4339.743652,4384.102539,4375.384766,4412.179688,4347.820313,4349.743652,4358.461426,4333.974121,4332.692383,4518.717773,4480,4430.512695,4465.128418,0,4,100,,,,0,4,4,4,4,4,4,4,4,4,4,4,4,4,4,100,,,,,,,,,,,,,,,,,,,,,,,,,,,,,,,,,,,,,,,,,,,,,,,,,,,,,,,,,,,,,,,,,,,,0,0,1,0,2048,0.467526,,,,,,,,,,,,,,,,,,,,,,,,,,,,,,,,,,,,,,,,,,,,,,,,,,,,,,,,,,,,,,,,,,,,,,
1732009123,1732009123,50,0,4368.589844,4343.077148,4383.589844,4376.153809,4423.077148,4352.436035,4349.102539,4361.794922,4338.717773,4337.692383,4518.461426,4481.794922,4421.410156,4465.512695,0,4,100,,,,0,4,4,4,4,4,4,4,4,4,4,4,4,4,4,100,,,,,,,,,,,,,,,,,,,,,,,,,,,,,,,,,,,,,,,,,,,,,,,,,,,,,,,,,,,,,,,,,,,,,,,,,,,,,,,,,,,,,,,,,,,,,,,,,,,,,,,,,,,,,,,,,,,,,,,,,,,,,,,,,,,,,,,,,,,,,,,
1732009123,1732009123,51,0,4367.820313,4341.794922,4382.05127,4373.974121,4409.743652,4350.512695,4347.436035,4360.897461,4337.692383,4334.358887,4521.794922,4479.615234,4421.666504,4466.025879,0,4,100,,,,0,4,4,4,4,4,4,4,4,4,4,4,4,4,4,100,,,,,,,,,,,,,,,,,,,,,,,,,,,,,,,,,,,,,,,,,,,,,,,,,,,,,,,,,,,,,,,,,,,,,,,,,,,,,,,,,,,,,,,,,,,,,,,,,,,,,,,,,,,,,,,,,,,,,,,,,,,,,,,,,,,,,,,,,,,,,,,
1732009123,1732009123,52,0,4365.897461,4337.563965,4382.692383,4371.153809,4413.461426,4348.974121,4345.512695,4356.410156,4336.538574,4327.05127,4519.487305,4475.641113,4425,4462.307617,0,4,100,,,,0,4,4,4,4,4,4,4,4,4,4,4,4,4,4,100,,,,,,,,,,,,,,,,,,,,,,,,,,,,,,,,,,,,,,,,,,,,,,,,,,,,,,,,,,,,,,,,,,,,,,,,,,,,,,,,,,,,,,,,,,,,,,,,,,,,,,,,,,,,,,,,,,,,,,,,,,,,,,,,,,,,,,,,,,,,,,,
1732009123,1732009123,53,0,4365,4341.794922,4384.230957,4370.512695,4437.692383,4353.846191,4343.717773,4355.641113,4336.922852,4320,4515,4476.410156,4417.94873,4457.179688,0,4,100,,,,0,4,4,4,4,4,4,4,4,4,4,4,4,4,4,100,,,,,,,,,,,,,,,,,,,,,,,,,,,,,1,0,0,,,,,,,,,,,,,,,,,,,,,,,,,,,,,,,,,,,,,0,0,1,0,2048,0.610199,0.776096,0.479665,0.30554,0.141016,0.108196,1.243265,0.366005,0.229505,0.266924,0.165934,0.55207,0.443948,0.214279,0.151881,0.087068,0.350315,0.269368,0.246365,0.176217,0.082349,0.55254,0.370376,0.101309,0.263529,0.114844,0.129976,0.10266,0.116873,0.15921,0.092901,0.65194,0.32987,0.171297,0.088215,0.085959,1.1779,0.424718,0.093713,0.160563,0.087541,0.720549,0.605827,0.125105,0.246323,0.084338,1.410278,0.73789,0.401075,0.324212,0.183251,1.027138,0.959647,0.265742,0.352398,0.194898,0.70752,0.948182,0.403358,0.349695,0.106968,3.286149,2.140927,1.018998,0.421142,0.27683,1.409663,1.027438,0.334395,0.236305,0.149857
1732009123,1732009123,54,0,4363.974121,4343.333496,4380.512695,4371.153809,4434.102539,4352.563965,4343.717773,4358.077148,4335.256348,4317.94873,4514.358887,4475.128418,4411.025879,4455.897461,0,4,100,,,,0,4,4,4,4,4,4,4,4,4,4,4,4,4,4,100,,,,,,,,,,,,,,,,,,,,,,,,,,,,,,,,,,,,,,,,,,,,,,,,,,,,,,,,,,,,,,,,,,,,,,,,,,,,,,,,,,,,,,,,,,,,,,,,,,,,,,,,,,,,,,,,,,,,,,,,,,,,,,,,,,,,,,,,,,,,,,,
1732009123,1732009123,55,0,4358.205078,4334.615234,4371.794922,4365.512695,4411.410156,4343.846191,4340.769043,4354.102539,4329.102539,4317.692383,4508.974121,4463.974121,4406.025879,4449.615234,0,4,100,,,,0,4,4,4,4,4,4,4,4,4,4,4,4,4,4,100,,,,,,,,,,,,,,,,,,,,,,,,,,,,,,,,,,,,,,,,,,,,,,,,,,,,,,,,,,,,,,,,,,,,,,,,,,,,,,,,,,,,,,,,,,,,,,,,,,,,,,,,,,,,,,,,,,,,,,,,,,,,,,,,,,,,,,,,,,,,,,,
1732009123,1732009123,56,0,4354.871582,4330.512695,4369.871582,4359.743652,4409.743652,4344.487305,4342.179688,4347.05127,4323.461426,4311.282227,4500.384766,4455,4403.333496,4442.563965,0,4,100,,,,0,4,4,4,4,4,4,4,4,4,4,4,4,4,4,100,,,,,,,,,,,,,,,,,,,,,,,,,,,,,,,,,,,,,,,,,,,,,,,,,,,,,,,,,,,,,,,,,,,,,,,,,,,,,,,,,,,,,,,,,,,,,,,,,,,,,,,,,,,,,,,,,,,,,,,,,,,,,,,,,,,,,,,,,,,,,,,
1732009123,1732009123,57,0,4356.153809,4334.102539,4369.487305,4359.871582,4412.563965,4349.102539,4345.769043,4345.384766,4323.461426,4304.230957,4498.589844,4456.666504,4401.922852,4444.871582,0,4,100,,,,0,4,4,4,4,4,4,4,4,4,4,4,4,4,4,100,,,,,,,,,,,,,,,,,,,,,,,,,,,,,,,,,,,,,,,,,,,,,,,,,,,,,,,,,,,,,,,,,,,,0,0,1,0,2048,0.610199,,,,,,,,,,,,,,,,,,,,,,,,,,,,,,,,,,,,,,,,,,,,,,,,,,,,,,,,,,,,,,,,,,,,,,
1732009123,1732009123,58,0,4352.436035,4330.769043,4362.307617,4354.102539,4401.282227,4343.461426,4345,4347.179688,4325.641113,4302.563965,4496.794922,4457.820313,4391.922852,4442.692383,0,4,100,,,,0,4,4,4,4,4,4,4,4,4,4,4,4,4,4,100,,,,,,,,,,,,,,,,,,,,,,,,,,,,,,,,,,,,,,,,,,,,,,,,,,,,,,,,,,,,,,,,,,,,,,,,,,,,,,,,,,,,,,,,,,,,,,,,,,,,,,,,,,,,,,,,,,,,,,,,,,,,,,,,,,,,,,,,,,,,,,,
1732009123,1732009123,59,0,4346.666504,4320.512695,4358.717773,4346.410156,4392.692383,4340.384766,4345.641113,4347.563965,4327.692383,4302.563965,4492.436035,4455.384766,4386.922852,4432.05127,0,4,100,,,,0,4,4,4,4,4,4,4,4,4,4,4,4,4,4,100,,,,,,,,,,,,,,,,,,,,,,,,,,,,,,,,,,,,,,,,,,,,,,,,,,,,,,,,,,,,,,,,,,,,,,,,,,,,,,,,,,,,,,,,,,,,,,,,,,,,,,,,,,,,,,,,,,,,,,,,,,,,,,,,,,,,,,,,,,,,,,,
1732009123,1732009123,60,0,4349.871582,4324.615234,4363.461426,4350.512695,4401.282227,4348.077148,4348.717773,4350.384766,4332.05127,4310.769043,4498.717773,4458.717773,4403.846191,4434.743652,0,4,100,,,,0,4,4,4,4,4,4,4,4,4,4,4,4,4,4,100,,,,,,,,,,,,,,,,,,,,,,,,,,,,,,,,,,,,,,,,,,,,,,,,,,,,,,,,,,,,,,,,,,,,,,,,,,,,,,,,,,,,,,,,,,,,,,,,,,,,,,,,,,,,,,,,,,,,,,,,,,,,,,,,,,,,,,,,,,,,,,,
1732009123,1732009123,61,0,4362.94873,4341.794922,4369.743652,4360.256348,4408.846191,4354.102539,4352.307617,4355.512695,4340.512695,4324.615234,4512.94873,4468.205078,4424.615234,4452.563965,0,4,100,,,,0,4,4,4,4,4,4,4,4,4,4,4,4,4,4,100,,,,,,,,,,,,,,,,,,,,,,,,,,,,,,,,,,,,,,,,,,,,,,,,,,,,,,,,,,,,,,,,,,,,0,0,1,0,2048,0.610199,,,,,,,,,,,,,,,,,,,,,,,,,,,,,,,,,,,,,,,,,,,,,,,,,,,,,,,,,,,,,,,,,,,,,,
1732009123,1732009123,62,0,4368.974121,4349.102539,4374.487305,4364.358887,4407.820313,4349.102539,4354.743652,4355.897461,4344.487305,4330.256348,4518.461426,4476.025879,4428.846191,4462.307617,0,4,100,,,,0,4,4,4,4,4,4,4,4,4,4,4,4,4,4,100,,,,,,,,,,,,,,,,,,,,,,,,,,,,,,,,,,,,,,,,,,,,,,,,,,,,,,,,,,,,,,,,,,,,,,,,,,,,,,,,,,,,,,,,,,,,,,,,,,,,,,,,,,,,,,,,,,,,,,,,,,,,,,,,,,,,,,,,,,,,,,,
1732009123,1732009123,63,0,4363.974121,4342.563965,4374.615234,4362.820313,4406.153809,4343.461426,4354.230957,4352.692383,4340.641113,4326.538574,4514.487305,4476.153809,4426.922852,4458.717773,0,4,100,,,,0,4,4,4,4,4,4,4,4,4,4,4,4,4,4,100,,,,,,,,,,,,,,,,,,,,,,,,,,,,,,,,,,,,,,,,,,,,,,,,,,,,,,,,,,,,,,,,,,,,,,,,,,,,,,,,,,,,,,,,,,,,,,,,,,,,,,,,,,,,,,,,,,,,,,,,,,,,,,,,,,,,,,,,,,,,,,,
1732009123,1732009123,64,0,4359.358887,4334.615234,4369.230957,4359.487305,4400.641113,4349.487305,4350.512695,4348.589844,4331.153809,4316.153809,4508.846191,4468.333496,4427.692383,4453.717773,2424,4,100,,,,0,4,4,4,4,4,4,4,4,4,4,4,4,4,4,100,,,,,,,,,,,,,,,,,,,,,,,,,,,,,,,,,,,,,,,,,,,,,,,,,,,,,,,,,,,,,,,,,,,,,,,,,,,,,,,,,,,,,,,,,,,,,,,,,,,,,,,,,,,,,,,,,,,,,,,,,,,,,,,,,,,,,,,,,,,,,,,
1732009123,1732009123,65,0,4358.974121,4335.384766,4364.871582,4360.769043,4400.897461,4356.282227,4345.512695,4345.256348,4321.666504,4308.077148,4503.077148,4461.794922,4426.794922,4452.94873,2301,4,100,,,,0,4,4,4,4,4,4,4,4,4,4,4,4,4,4,100,,,,,,,,,,,,,,,,,,,,,,,,,,,,,,,,,,,,,,,,,,,,,,,,,,,,,,,,,,,,,,,,,,,,0,0,1,0,2048,0.610199,,,,,,,,,,,,,,,,,,,,,,,,,,,,,,,,,,,,,,,,,,,,,,,,,,,,,,,,,,,,,,,,,,,,,,
1732009123,1732009123,66,0,4363.846191,4341.410156,4366.794922,4367.692383,4413.461426,4353.846191,4346.410156,4345.256348,4322.436035,4313.333496,4501.410156,4464.743652,4425.641113,4451.410156,2122,4,100,,,,0,4,4,4,4,4,4,4,4,4,4,4,4,4,4,100,,,,,,,,,,,,,,,,,,,,,,,,,,,,,,,,,,,,,,,,,,,,,,,,,,,,,,,,,,,,,,,,,,,,,,,,,,,,,,,,,,,,,,,,,,,,,,,,,,,,,,,,,,,,,,,,,,,,,,,,,,,,,,,,,,,,,,,,,,,,,,,
1732009123,1732009123,67,0,4366.410156,4337.692383,4367.307617,4367.820313,4416.153809,4351.410156,4345.897461,4344.743652,4327.05127,4324.743652,4505,4468.717773,4422.436035,4450.897461,2289,4,100,,,,0,4,4,4,4,4,4,4,4,4,4,4,4,4,4,100,,,,,,,,,,,,,,,,,,,,,,,,,,,,,,,,,,,,,,,,,,,,,,,,,,,,,,,,,,,,,,,,,,,,,,,,,,,,,,,,,,,,,,,,,,,,,,,,,,,,,,,,,,,,,,,,,,,,,,,,,,,,,,,,,,,,,,,,,,,,,,,
